#K-Path(1/A) Energy-Level(eV)
# NKPTS & NBANDS:  60 120
# Band-Index    1
   0.00000    -17.790053
   0.01519    -17.789563
   0.03038    -17.788092
   0.04557    -17.785648
   0.06076    -17.782230
   0.07595    -17.777838
   0.09114    -17.772485
   0.10633    -17.766182
   0.12152    -17.758942
   0.13671    -17.750787
   0.15190    -17.741742
   0.16709    -17.731846
   0.18228    -17.721148
   0.19747    -17.709745
   0.21266    -17.697776
   0.22785    -17.685490
   0.24305    -17.673337
   0.25824    -17.662214
   0.27343    -17.653778
   0.28862    -17.650491
   0.28862    -17.650491
   0.29739    -17.650318
   0.30616    -17.649801
   0.31493    -17.648938
   0.32370    -17.647730
   0.33247    -17.646179
   0.34124    -17.644288
   0.35001    -17.642053
   0.35878    -17.639476
   0.36755    -17.636562
   0.37632    -17.633310
   0.38509    -17.629722
   0.39386    -17.625815
   0.40263    -17.621590
   0.41140    -17.617070
   0.42017    -17.612288
   0.42894    -17.607317
   0.43771    -17.602340
   0.44648    -17.597909
   0.45525    -17.595770
   0.45525    -17.595770
   0.47279    -17.603855
   0.49033    -17.618562
   0.50787    -17.634821
   0.52541    -17.651439
   0.54295    -17.667833
   0.56049    -17.683665
   0.57803    -17.698709
   0.59557    -17.712816
   0.61311    -17.725901
   0.63065    -17.737872
   0.64819    -17.748682
   0.66573    -17.758286
   0.68327    -17.766659
   0.70081    -17.773780
   0.71835    -17.779627
   0.73589    -17.784181
   0.75343    -17.787440
   0.77097    -17.789399
   0.78851    -17.790053
 
# Band-Index    2
   0.78851    -17.103613
   0.77097    -17.134149
   0.75343    -17.169808
   0.73589    -17.204539
   0.71835    -17.238114
   0.70081    -17.270464
   0.68327    -17.301569
   0.66573    -17.331408
   0.64819    -17.359965
   0.63065    -17.387228
   0.61311    -17.413175
   0.59557    -17.437804
   0.57803    -17.461099
   0.56049    -17.483044
   0.54295    -17.503621
   0.52541    -17.522801
   0.50787    -17.540534
   0.49033    -17.556684
   0.47279    -17.570678
   0.45525    -17.578310
   0.45525    -17.578310
   0.44648    -17.576348
   0.43771    -17.572509
   0.42894    -17.568618
   0.42017    -17.565254
   0.41140    -17.562578
   0.40263    -17.560598
   0.39386    -17.559248
   0.38509    -17.558422
   0.37632    -17.558018
   0.36755    -17.557925
   0.35878    -17.558052
   0.35001    -17.558322
   0.34124    -17.558666
   0.33247    -17.559034
   0.32370    -17.559386
   0.31493    -17.559692
   0.30616    -17.559925
   0.29739    -17.560071
   0.28862    -17.560121
   0.28862    -17.560121
   0.27343    -17.555901
   0.25824    -17.544676
   0.24305    -17.528896
   0.22785    -17.510245
   0.21266    -17.489605
   0.19747    -17.467444
   0.18228    -17.444032
   0.16709    -17.419500
   0.15190    -17.393966
   0.13671    -17.367507
   0.12152    -17.340185
   0.10633    -17.312046
   0.09114    -17.283147
   0.07595    -17.253534
   0.06076    -17.223264
   0.04557    -17.192398
   0.03038    -17.161053
   0.01519    -17.129517
   0.00000    -17.103613
 
# Band-Index    3
   0.00000    -17.103549
   0.01519    -17.114260
   0.03038    -17.130452
   0.04557    -17.146488
   0.06076    -17.161772
   0.07595    -17.176162
   0.09114    -17.189616
   0.10633    -17.202109
   0.12152    -17.213626
   0.13671    -17.224162
   0.15190    -17.233703
   0.16709    -17.242253
   0.18228    -17.249804
   0.19747    -17.256352
   0.21266    -17.261894
   0.22785    -17.266433
   0.24305    -17.269963
   0.25824    -17.272484
   0.27343    -17.273999
   0.28862    -17.274505
   0.28862    -17.274505
   0.29739    -17.276657
   0.30616    -17.282657
   0.31493    -17.291483
   0.32370    -17.302102
   0.33247    -17.313738
   0.34124    -17.325850
   0.35001    -17.338076
   0.35878    -17.350141
   0.36755    -17.361849
   0.37632    -17.373014
   0.38509    -17.383472
   0.39386    -17.393061
   0.40263    -17.401622
   0.41140    -17.409022
   0.42017    -17.415136
   0.42894    -17.419874
   0.43771    -17.423203
   0.44648    -17.425146
   0.45525    -17.425770
   0.45525    -17.425770
   0.47279    -17.423504
   0.49033    -17.417327
   0.50787    -17.408085
   0.52541    -17.396416
   0.54295    -17.382768
   0.56049    -17.367452
   0.57803    -17.350700
   0.59557    -17.332691
   0.61311    -17.313578
   0.63065    -17.293499
   0.64819    -17.272578
   0.66573    -17.250962
   0.68327    -17.228797
   0.70081    -17.206251
   0.71835    -17.183519
   0.73589    -17.160826
   0.75343    -17.138505
   0.77097    -17.117317
   0.78851    -17.103549
 
# Band-Index    4
   0.78851    -17.091958
   0.77097    -17.086183
   0.75343    -17.084011
   0.73589    -17.080663
   0.71835    -17.076014
   0.70081    -17.070050
   0.68327    -17.062767
   0.66573    -17.054176
   0.64819    -17.044269
   0.63065    -17.033055
   0.61311    -17.020539
   0.59557    -17.006732
   0.57803    -16.991642
   0.56049    -16.975268
   0.54295    -16.957629
   0.52541    -16.938729
   0.50787    -16.918577
   0.49033    -16.897187
   0.47279    -16.874582
   0.45525    -16.850766
   0.45525    -16.850766
   0.44648    -16.864244
   0.43771    -16.879837
   0.42894    -16.896888
   0.42017    -16.914908
   0.41140    -16.933525
   0.40263    -16.952469
   0.39386    -16.971549
   0.38509    -16.990610
   0.37632    -17.009527
   0.36755    -17.028189
   0.35878    -17.046471
   0.35001    -17.064250
   0.34124    -17.081351
   0.33247    -17.097541
   0.32370    -17.112479
   0.31493    -17.125644
   0.30616    -17.136275
   0.29739    -17.143359
   0.28862    -17.145871
   0.28862    -17.145871
   0.27343    -17.145553
   0.25824    -17.144603
   0.24305    -17.143036
   0.22785    -17.140868
   0.21266    -17.138127
   0.19747    -17.134855
   0.18228    -17.131098
   0.16709    -17.126919
   0.15190    -17.122394
   0.13671    -17.117619
   0.12152    -17.112702
   0.10633    -17.107774
   0.09114    -17.102984
   0.07595    -17.098495
   0.06076    -17.094488
   0.04557    -17.091142
   0.03038    -17.088644
   0.01519    -17.087303
   0.00000    -17.091958
 
# Band-Index    5
   0.00000    -17.082834
   0.01519    -17.071109
   0.03038    -17.052028
   0.04557    -17.031192
   0.06076    -17.009185
   0.07595    -16.986161
   0.09114    -16.962164
   0.10633    -16.937217
   0.12152    -16.911347
   0.13671    -16.884571
   0.15190    -16.856910
   0.16709    -16.828374
   0.18228    -16.798992
   0.19747    -16.768785
   0.21266    -16.737790
   0.22785    -16.706081
   0.24305    -16.673799
   0.25824    -16.641295
   0.27343    -16.610095
   0.28862    -16.591362
   0.28862    -16.591362
   0.29739    -16.596507
   0.30616    -16.608308
   0.31493    -16.622626
   0.32370    -16.637827
   0.33247    -16.653303
   0.34124    -16.668810
   0.35001    -16.684210
   0.35878    -16.699455
   0.36755    -16.714500
   0.37632    -16.729313
   0.38509    -16.743889
   0.39386    -16.758200
   0.40263    -16.772256
   0.41140    -16.786038
   0.42017    -16.799543
   0.42894    -16.812768
   0.43771    -16.825705
   0.44648    -16.838352
   0.45525    -16.850689
   0.45525    -16.850689
   0.47279    -16.832654
   0.49033    -16.828115
   0.50787    -16.833707
   0.52541    -16.844720
   0.54295    -16.858269
   0.56049    -16.872944
   0.57803    -16.888069
   0.59557    -16.903325
   0.61311    -16.918597
   0.63065    -16.933876
   0.64819    -16.949226
   0.66573    -16.964775
   0.68327    -16.980676
   0.70081    -16.997117
   0.71835    -17.014244
   0.73589    -17.032165
   0.75343    -17.050853
   0.77097    -17.069776
   0.78851    -17.082834
 
# Band-Index    6
   0.78851    -17.082754
   0.77097    -17.056211
   0.75343    -17.017166
   0.73589    -16.976534
   0.71835    -16.934683
   0.70081    -16.891689
   0.68327    -16.847581
   0.66573    -16.802418
   0.64819    -16.756213
   0.63065    -16.709016
   0.61311    -16.660836
   0.59557    -16.611721
   0.57803    -16.561709
   0.56049    -16.510852
   0.54295    -16.539690
   0.52541    -16.581283
   0.50787    -16.620649
   0.49033    -16.653916
   0.47279    -16.675918
   0.45525    -16.683026
   0.45525    -16.683026
   0.44648    -16.681551
   0.43771    -16.677585
   0.42894    -16.671760
   0.42017    -16.664571
   0.41140    -16.656388
   0.40263    -16.647476
   0.39386    -16.638035
   0.38509    -16.628233
   0.37632    -16.618186
   0.36755    -16.608036
   0.35878    -16.597903
   0.35001    -16.587936
   0.34124    -16.578315
   0.33247    -16.569246
   0.32370    -16.561012
   0.31493    -16.553950
   0.30616    -16.548465
   0.29739    -16.544947
   0.28862    -16.543710
   0.28862    -16.543710
   0.27343    -16.544139
   0.25824    -16.560237
   0.24305    -16.582861
   0.22785    -16.609289
   0.21266    -16.637971
   0.19747    -16.668067
   0.18228    -16.699104
   0.16709    -16.730821
   0.15190    -16.763076
   0.13671    -16.795745
   0.12152    -16.828758
   0.10633    -16.862031
   0.09114    -16.895493
   0.07595    -16.929052
   0.06076    -16.962610
   0.04557    -16.996070
   0.03038    -17.029267
   0.01519    -17.061715
   0.00000    -17.082754
 
# Band-Index    7
   0.00000    -16.671050
   0.01519    -16.669321
   0.03038    -16.664162
   0.04557    -16.655669
   0.06076    -16.643980
   0.07595    -16.629278
   0.09114    -16.611761
   0.10633    -16.591658
   0.12152    -16.569230
   0.13671    -16.544767
   0.15190    -16.518632
   0.16709    -16.491287
   0.18228    -16.463436
   0.19747    -16.436119
   0.21266    -16.411113
   0.22785    -16.416690
   0.24305    -16.454355
   0.25824    -16.490692
   0.27343    -16.524206
   0.28862    -16.538129
   0.28862    -16.538129
   0.29739    -16.532712
   0.30616    -16.520153
   0.31493    -16.504584
   0.32370    -16.487661
   0.33247    -16.469964
   0.34124    -16.451751
   0.35001    -16.433162
   0.35878    -16.414255
   0.36755    -16.395082
   0.37632    -16.375693
   0.38509    -16.356107
   0.39386    -16.336357
   0.40263    -16.316492
   0.41140    -16.296556
   0.42017    -16.276638
   0.42894    -16.256849
   0.43771    -16.237408
   0.44648    -16.218893
   0.45525    -16.206192
   0.45525    -16.206192
   0.47279    -16.247888
   0.49033    -16.300662
   0.50787    -16.353919
   0.52541    -16.406854
   0.54295    -16.459209
   0.56049    -16.500103
   0.57803    -16.471663
   0.59557    -16.469125
   0.61311    -16.488046
   0.63065    -16.514371
   0.64819    -16.542087
   0.66573    -16.568991
   0.68327    -16.593957
   0.70081    -16.616261
   0.71835    -16.635315
   0.73589    -16.650648
   0.75343    -16.661887
   0.77097    -16.668746
   0.78851    -16.671050
 
# Band-Index    8
   0.78851    -15.810192
   0.77097    -15.838225
   0.75343    -15.886023
   0.73589    -15.937612
   0.71835    -15.990575
   0.70081    -16.044047
   0.68327    -16.097571
   0.66573    -16.150681
   0.64819    -16.202850
   0.63065    -16.253227
   0.61311    -16.299807
   0.59557    -16.336798
   0.57803    -16.350347
   0.56049    -16.336132
   0.54295    -16.308941
   0.52541    -16.277730
   0.50787    -16.246038
   0.49033    -16.216343
   0.47279    -16.193312
   0.45525    -16.191173
   0.45525    -16.191173
   0.44648    -16.196975
   0.43771    -16.207350
   0.42894    -16.219287
   0.42017    -16.231986
   0.41140    -16.245075
   0.40263    -16.258356
   0.39386    -16.271681
   0.38509    -16.284960
   0.37632    -16.298093
   0.36755    -16.310985
   0.35878    -16.323540
   0.35001    -16.335618
   0.34124    -16.347056
   0.33247    -16.357650
   0.32370    -16.367125
   0.31493    -16.375142
   0.30616    -16.381317
   0.29739    -16.385236
   0.28862    -16.386582
   0.28862    -16.386582
   0.27343    -16.384024
   0.25824    -16.379670
   0.24305    -16.380540
   0.22785    -16.391371
   0.21266    -16.378076
   0.19747    -16.338679
   0.18228    -16.298556
   0.16709    -16.257774
   0.15190    -16.216386
   0.13671    -16.174418
   0.12152    -16.131935
   0.10633    -16.089002
   0.09114    -16.045683
   0.07595    -16.002072
   0.06076    -15.958325
   0.04557    -15.914745
   0.03038    -15.871982
   0.01519    -15.832431
   0.00000    -15.810192
 
# Band-Index    9
   0.00000    -15.810127
   0.01519    -15.815136
   0.03038    -15.829215
   0.04557    -15.850580
   0.06076    -15.877139
   0.07595    -15.907157
   0.09114    -15.939354
   0.10633    -15.972835
   0.12152    -16.006954
   0.13671    -16.041204
   0.15190    -16.075122
   0.16709    -16.108204
   0.18228    -16.139822
   0.19747    -16.168985
   0.21266    -16.194017
   0.22785    -16.212150
   0.24305    -16.219908
   0.25824    -16.216701
   0.27343    -16.208317
   0.28862    -16.203917
   0.28862    -16.203917
   0.29739    -16.203766
   0.30616    -16.203310
   0.31493    -16.202550
   0.32370    -16.201482
   0.33247    -16.200113
   0.34124    -16.198440
   0.35001    -16.196460
   0.35878    -16.194178
   0.36755    -16.191593
   0.37632    -16.188716
   0.38509    -16.185551
   0.39386    -16.182119
   0.40263    -16.178463
   0.41140    -16.174657
   0.42017    -16.170936
   0.42894    -16.167945
   0.43771    -16.167823
   0.44648    -16.175845
   0.45525    -16.188055
   0.45525    -16.188055
   0.47279    -16.165839
   0.49033    -16.142072
   0.50787    -16.123061
   0.52541    -16.105564
   0.54295    -16.088121
   0.56049    -16.070166
   0.57803    -16.051495
   0.59557    -16.032015
   0.61311    -16.011707
   0.63065    -15.990578
   0.64819    -15.968696
   0.66573    -15.946124
   0.68327    -15.922994
   0.70081    -15.899512
   0.71835    -15.876034
   0.73589    -15.853234
   0.75343    -15.832453
   0.77097    -15.816520
   0.78851    -15.810127
 
# Band-Index   10
   0.78851    -15.750617
   0.77097    -15.730908
   0.75343    -15.724814
   0.73589    -15.740763
   0.71835    -15.763072
   0.70081    -15.787816
   0.68327    -15.813670
   0.66573    -15.840034
   0.64819    -15.866606
   0.63065    -15.893241
   0.61311    -15.919886
   0.59557    -15.946505
   0.57803    -15.973113
   0.56049    -15.999713
   0.54295    -16.026306
   0.52541    -16.052812
   0.50787    -16.079009
   0.49033    -16.104189
   0.47279    -16.125197
   0.45525    -16.132418
   0.45525    -16.132418
   0.44648    -16.130078
   0.43771    -16.118789
   0.42894    -16.105000
   0.42017    -16.095135
   0.41140    -16.086618
   0.40263    -16.079022
   0.39386    -16.072300
   0.38509    -16.066440
   0.37632    -16.061399
   0.36755    -16.057118
   0.35878    -16.053538
   0.35001    -16.050579
   0.34124    -16.048174
   0.33247    -16.046256
   0.32370    -16.044770
   0.31493    -16.043665
   0.30616    -16.042905
   0.29739    -16.042459
   0.28862    -16.042313
   0.28862    -16.042313
   0.27343    -16.033588
   0.25824    -16.010845
   0.24305    -15.979844
   0.22785    -15.944446
   0.21266    -15.906823
   0.19747    -15.868347
   0.18228    -15.830126
   0.16709    -15.793473
   0.15190    -15.760308
   0.13671    -15.733270
   0.12152    -15.714420
   0.10633    -15.703080
   0.09114    -15.696685
   0.07595    -15.699823
   0.06076    -15.703596
   0.04557    -15.708072
   0.03038    -15.716019
   0.01519    -15.733955
   0.00000    -15.750617
 
# Band-Index   11
   0.00000    -15.685520
   0.01519    -15.686014
   0.03038    -15.687238
   0.04557    -15.688791
   0.06076    -15.690595
   0.07595    -15.692979
   0.09114    -15.695988
   0.10633    -15.691858
   0.12152    -15.687358
   0.13671    -15.682464
   0.15190    -15.677207
   0.16709    -15.671659
   0.18228    -15.665908
   0.19747    -15.660071
   0.21266    -15.654330
   0.22785    -15.648924
   0.24305    -15.644146
   0.25824    -15.641115
   0.27343    -15.640906
   0.28862    -15.640830
   0.28862    -15.640830
   0.29739    -15.667960
   0.30616    -15.696969
   0.31493    -15.726016
   0.32370    -15.755075
   0.33247    -15.784109
   0.34124    -15.813115
   0.35001    -15.842066
   0.35878    -15.870940
   0.36755    -15.899717
   0.37632    -15.928384
   0.38509    -15.956891
   0.39386    -15.985193
   0.40263    -16.013208
   0.41140    -16.040757
   0.42017    -16.067440
   0.42894    -16.091883
   0.43771    -16.108789
   0.44648    -16.117921
   0.45525    -16.121762
   0.45525    -16.121762
   0.47279    -16.107731
   0.49033    -16.077356
   0.50787    -16.038681
   0.52541    -15.996238
   0.54295    -15.951968
   0.56049    -15.906692
   0.57803    -15.860815
   0.59557    -15.814599
   0.61311    -15.768308
   0.63065    -15.722234
   0.64819    -15.676915
   0.66573    -15.633735
   0.68327    -15.598683
   0.70081    -15.593596
   0.71835    -15.613901
   0.73589    -15.638551
   0.75343    -15.663130
   0.77097    -15.684285
   0.78851    -15.685520
 
# Band-Index   12
   0.78851    -15.685481
   0.77097    -15.678620
   0.75343    -15.660393
   0.73589    -15.623757
   0.71835    -15.585050
   0.70081    -15.549779
   0.68327    -15.526156
   0.66573    -15.509207
   0.64819    -15.502322
   0.63065    -15.511958
   0.61311    -15.529957
   0.59557    -15.551466
   0.57803    -15.573988
   0.56049    -15.596094
   0.54295    -15.616825
   0.52541    -15.635394
   0.50787    -15.651074
   0.49033    -15.663159
   0.47279    -15.670918
   0.45525    -15.673652
   0.45525    -15.673652
   0.44648    -15.672932
   0.43771    -15.670748
   0.42894    -15.667060
   0.42017    -15.661853
   0.41140    -15.655141
   0.40263    -15.646974
   0.39386    -15.637421
   0.38509    -15.626597
   0.37632    -15.614638
   0.36755    -15.601711
   0.35878    -15.588033
   0.35001    -15.573863
   0.34124    -15.559574
   0.33247    -15.545893
   0.32370    -15.536797
   0.31493    -15.553815
   0.30616    -15.581416
   0.29739    -15.609985
   0.28862    -15.637010
   0.28862    -15.637010
   0.27343    -15.637869
   0.25824    -15.640340
   0.24305    -15.641390
   0.22785    -15.641610
   0.21266    -15.641579
   0.19747    -15.640980
   0.18228    -15.639276
   0.16709    -15.635523
   0.15190    -15.628079
   0.13671    -15.614507
   0.12152    -15.592922
   0.10633    -15.564173
   0.09114    -15.531083
   0.07595    -15.534445
   0.06076    -15.577538
   0.04557    -15.619456
   0.03038    -15.656429
   0.01519    -15.679394
   0.00000    -15.685481
 
# Band-Index   13
   0.00000    -15.497475
   0.01519    -15.492463
   0.03038    -15.478676
   0.04557    -15.460111
   0.06076    -15.463549
   0.07595    -15.496357
   0.09114    -15.492071
   0.10633    -15.453152
   0.12152    -15.424888
   0.13671    -15.416668
   0.15190    -15.422339
   0.16709    -15.432721
   0.18228    -15.444345
   0.19747    -15.455951
   0.21266    -15.466903
   0.22785    -15.476744
   0.24305    -15.485062
   0.25824    -15.491435
   0.27343    -15.495465
   0.28862    -15.496847
   0.28862    -15.496847
   0.29739    -15.499230
   0.30616    -15.505832
   0.31493    -15.514860
   0.32370    -15.515602
   0.33247    -15.491607
   0.34124    -15.463726
   0.35001    -15.435461
   0.35878    -15.407195
   0.36755    -15.379040
   0.37632    -15.351056
   0.38509    -15.323289
   0.39386    -15.295805
   0.40263    -15.268669
   0.41140    -15.242000
   0.42017    -15.215989
   0.42894    -15.190992
   0.43771    -15.167903
   0.44648    -15.149283
   0.45525    -15.141685
   0.45525    -15.141685
   0.47279    -15.158650
   0.49033    -15.186408
   0.50787    -15.216567
   0.52541    -15.247878
   0.54295    -15.279905
   0.56049    -15.312384
   0.57803    -15.345090
   0.59557    -15.377819
   0.61311    -15.410330
   0.63065    -15.442245
   0.64819    -15.472662
   0.66573    -15.497935
   0.68327    -15.519938
   0.70081    -15.515877
   0.71835    -15.481626
   0.73589    -15.454135
   0.75343    -15.473017
   0.77097    -15.490836
   0.78851    -15.497475
 
# Band-Index   14
   0.78851    -15.351546
   0.77097    -15.367197
   0.75343    -15.399348
   0.73589    -15.429778
   0.71835    -15.410323
   0.70081    -15.380130
   0.68327    -15.367890
   0.66573    -15.369817
   0.64819    -15.363282
   0.63065    -15.345709
   0.61311    -15.321688
   0.59557    -15.294919
   0.57803    -15.267224
   0.56049    -15.239467
   0.54295    -15.212097
   0.52541    -15.185417
   0.50787    -15.159717
   0.49033    -15.135498
   0.47279    -15.114312
   0.45525    -15.104539
   0.45525    -15.104539
   0.44648    -15.102811
   0.43771    -15.099333
   0.42894    -15.101533
   0.42017    -15.109574
   0.41140    -15.121296
   0.40263    -15.135457
   0.39386    -15.151302
   0.38509    -15.168309
   0.37632    -15.186106
   0.36755    -15.204386
   0.35878    -15.222887
   0.35001    -15.241345
   0.34124    -15.259471
   0.33247    -15.276897
   0.32370    -15.293144
   0.31493    -15.307550
   0.30616    -15.319188
   0.29739    -15.326907
   0.28862    -15.329637
   0.28862    -15.329637
   0.27343    -15.329230
   0.25824    -15.328038
   0.24305    -15.326154
   0.22785    -15.323742
   0.21266    -15.321051
   0.19747    -15.318455
   0.18228    -15.316502
   0.16709    -15.316015
   0.15190    -15.318194
   0.13671    -15.324609
   0.12152    -15.340743
   0.10633    -15.354873
   0.09114    -15.377766
   0.07595    -15.403052
   0.06076    -15.426632
   0.04557    -15.420151
   0.03038    -15.390090
   0.01519    -15.363693
   0.00000    -15.351546
 
# Band-Index   15
   0.00000    -15.279604
   0.01519    -15.281878
   0.03038    -15.288563
   0.04557    -15.298430
   0.06076    -15.310233
   0.07595    -15.322760
   0.09114    -15.334591
   0.10633    -15.343016
   0.12152    -15.336720
   0.13671    -15.318329
   0.15190    -15.281852
   0.16709    -15.240441
   0.18228    -15.197508
   0.19747    -15.154271
   0.21266    -15.111309
   0.22785    -15.069018
   0.24305    -15.027837
   0.25824    -14.988617
   0.27343    -14.953933
   0.28862    -14.935958
   0.28862    -14.935958
   0.29739    -14.936943
   0.30616    -14.939815
   0.31493    -14.944378
   0.32370    -14.950380
   0.33247    -14.957557
   0.34124    -14.965694
   0.35001    -14.974604
   0.35878    -14.984161
   0.36755    -14.994264
   0.37632    -15.004836
   0.38509    -15.015824
   0.39386    -15.027156
   0.40263    -15.038753
   0.41140    -15.050493
   0.42017    -15.062098
   0.42894    -15.072866
   0.43771    -15.080919
   0.44648    -15.084991
   0.45525    -15.086900
   0.45525    -15.086900
   0.47279    -15.080319
   0.49033    -15.084645
   0.50787    -15.095249
   0.52541    -15.107537
   0.54295    -15.120357
   0.56049    -15.133450
   0.57803    -15.147120
   0.59557    -15.162700
   0.61311    -15.183604
   0.63065    -15.212939
   0.64819    -15.248299
   0.66573    -15.285726
   0.68327    -15.319801
   0.70081    -15.331478
   0.71835    -15.319930
   0.73589    -15.304842
   0.75343    -15.291628
   0.77097    -15.282649
   0.78851    -15.279604
 
# Band-Index   16
   0.78851    -15.279465
   0.77097    -15.268161
   0.75343    -15.248203
   0.73589    -15.230404
   0.71835    -15.216223
   0.70081    -15.204601
   0.68327    -15.194211
   0.66573    -15.183992
   0.64819    -15.172974
   0.63065    -15.159793
   0.61311    -15.141861
   0.59557    -15.117620
   0.57803    -15.090659
   0.56049    -15.064671
   0.54295    -15.041176
   0.52541    -15.020966
   0.50787    -15.005077
   0.49033    -14.997805
   0.47279    -15.026757
   0.45525    -15.040610
   0.45525    -15.040610
   0.44648    -15.038499
   0.43771    -15.033190
   0.42894    -15.025635
   0.42017    -15.016600
   0.41140    -15.006675
   0.40263    -14.996247
   0.39386    -14.985552
   0.38509    -14.974727
   0.37632    -14.963869
   0.36755    -14.953056
   0.35878    -14.942340
   0.35001    -14.931789
   0.34124    -14.921496
   0.33247    -14.911646
   0.32370    -14.902861
   0.31493    -14.896048
   0.30616    -14.890893
   0.29739    -14.887422
   0.28862    -14.886156
   0.28862    -14.886156
   0.27343    -14.900907
   0.25824    -14.928227
   0.24305    -14.958581
   0.22785    -14.990161
   0.21266    -15.022289
   0.19747    -15.054466
   0.18228    -15.086116
   0.16709    -15.116440
   0.15190    -15.144293
   0.13671    -15.168194
   0.12152    -15.186821
   0.10633    -15.200013
   0.09114    -15.209284
   0.07595    -15.217133
   0.06076    -15.226078
   0.04557    -15.238079
   0.03038    -15.253713
   0.01519    -15.270602
   0.00000    -15.279465
 
# Band-Index   17
   0.00000    -15.113944
   0.01519    -15.111907
   0.03038    -15.105630
   0.04557    -15.094634
   0.06076    -15.078921
   0.07595    -15.060767
   0.09114    -15.043027
   0.10633    -15.024496
   0.12152    -15.005506
   0.13671    -14.986348
   0.15190    -14.967274
   0.16709    -14.948531
   0.18228    -14.930395
   0.19747    -14.913181
   0.21266    -14.897280
   0.22785    -14.883218
   0.24305    -14.871776
   0.25824    -14.864512
   0.27343    -14.866330
   0.28862    -14.874889
   0.28862    -14.874889
   0.29739    -14.877332
   0.30616    -14.883411
   0.31493    -14.891262
   0.32370    -14.899439
   0.33247    -14.906890
   0.34124    -14.914127
   0.35001    -14.921506
   0.35878    -14.929038
   0.36755    -14.936660
   0.37632    -14.944279
   0.38509    -14.951795
   0.39386    -14.959084
   0.40263    -14.965986
   0.41140    -14.972304
   0.42017    -14.977781
   0.42894    -14.982114
   0.43771    -14.985038
   0.44648    -14.986498
   0.45525    -14.986837
   0.45525    -14.986837
   0.47279    -14.987002
   0.49033    -14.982181
   0.50787    -14.941021
   0.52541    -14.896313
   0.54295    -14.858844
   0.56049    -14.886371
   0.57803    -14.916203
   0.59557    -14.944596
   0.61311    -14.970788
   0.63065    -14.994505
   0.64819    -15.015802
   0.66573    -15.034925
   0.68327    -15.052170
   0.70081    -15.067774
   0.71835    -15.081829
   0.73589    -15.094185
   0.75343    -15.104345
   0.77097    -15.111345
   0.78851    -15.113944
 
# Band-Index   18
   0.78851    -15.113913
   0.77097    -15.110192
   0.75343    -15.098702
   0.73589    -15.079728
   0.71835    -15.054911
   0.70081    -15.026533
   0.68327    -14.996598
   0.66573    -14.966535
   0.64819    -14.937345
   0.63065    -14.909736
   0.61311    -14.884313
   0.59557    -14.861618
   0.57803    -14.842240
   0.56049    -14.827133
   0.54295    -14.849194
   0.52541    -14.827955
   0.50787    -14.818286
   0.49033    -14.822710
   0.47279    -14.828337
   0.45525    -14.830578
   0.45525    -14.830578
   0.44648    -14.830057
   0.43771    -14.828639
   0.42894    -14.826597
   0.42017    -14.824215
   0.41140    -14.821751
   0.40263    -14.819435
   0.39386    -14.817437
   0.38509    -14.815883
   0.37632    -14.814862
   0.36755    -14.814423
   0.35878    -14.814589
   0.35001    -14.815407
   0.34124    -14.817031
   0.33247    -14.820049
   0.32370    -14.824978
   0.31493    -14.830577
   0.30616    -14.835531
   0.29739    -14.838856
   0.28862    -14.839609
   0.28862    -14.839609
   0.27343    -14.832895
   0.25824    -14.829607
   0.24305    -14.837939
   0.22785    -14.849713
   0.21266    -14.864300
   0.19747    -14.881282
   0.18228    -14.900285
   0.16709    -14.920972
   0.15190    -14.943011
   0.13671    -14.966082
   0.12152    -14.989804
   0.10633    -15.013735
   0.09114    -15.037221
   0.07595    -15.059346
   0.06076    -15.077227
   0.04557    -15.091751
   0.03038    -15.103456
   0.01519    -15.111204
   0.00000    -15.113913
 
# Band-Index   19
   0.00000    -14.683273
   0.01519    -14.682286
   0.03038    -14.679407
   0.04557    -14.674874
   0.06076    -14.669083
   0.07595    -14.662603
   0.09114    -14.656238
   0.10633    -14.651071
   0.12152    -14.648510
   0.13671    -14.650104
   0.15190    -14.656858
   0.16709    -14.668718
   0.18228    -14.684779
   0.19747    -14.704023
   0.21266    -14.725635
   0.22785    -14.749021
   0.24305    -14.777869
   0.25824    -14.809349
   0.27343    -14.829145
   0.28862    -14.839126
   0.28862    -14.839126
   0.29739    -14.836379
   0.30616    -14.830815
   0.31493    -14.824249
   0.32370    -14.818293
   0.33247    -14.813408
   0.34124    -14.807490
   0.35001    -14.800580
   0.35878    -14.793314
   0.36755    -14.785985
   0.37632    -14.778763
   0.38509    -14.771786
   0.39386    -14.765207
   0.40263    -14.759149
   0.41140    -14.753692
   0.42017    -14.748865
   0.42894    -14.744670
   0.43771    -14.741170
   0.44648    -14.738565
   0.45525    -14.737438
   0.45525    -14.737438
   0.47279    -14.745195
   0.49033    -14.765924
   0.50787    -14.790732
   0.52541    -14.808212
   0.54295    -14.815449
   0.56049    -14.809084
   0.57803    -14.769888
   0.59557    -14.733358
   0.61311    -14.700931
   0.63065    -14.674567
   0.64819    -14.657179
   0.66573    -14.650396
   0.68327    -14.651873
   0.70081    -14.657730
   0.71835    -14.665130
   0.73589    -14.672315
   0.75343    -14.678168
   0.77097    -14.681960
   0.78851    -14.683273
 
# Band-Index   20
   0.78851    -14.467868
   0.77097    -14.470258
   0.75343    -14.476955
   0.73589    -14.487557
   0.71835    -14.501946
   0.70081    -14.519311
   0.68327    -14.538258
   0.66573    -14.556815
   0.64819    -14.572457
   0.63065    -14.584304
   0.61311    -14.594629
   0.59557    -14.605864
   0.57803    -14.623359
   0.56049    -14.646718
   0.54295    -14.669283
   0.52541    -14.688796
   0.50787    -14.703477
   0.49033    -14.712830
   0.47279    -14.716671
   0.45525    -14.712451
   0.45525    -14.712451
   0.44648    -14.716378
   0.43771    -14.722828
   0.42894    -14.729634
   0.42017    -14.736531
   0.41140    -14.743429
   0.40263    -14.750280
   0.39386    -14.757060
   0.38509    -14.763801
   0.37632    -14.770583
   0.36755    -14.777488
   0.35878    -14.784555
   0.35001    -14.791786
   0.34124    -14.799112
   0.33247    -14.806297
   0.32370    -14.812464
   0.31493    -14.816140
   0.30616    -14.818075
   0.29739    -14.819140
   0.28862    -14.819490
   0.28862    -14.819490
   0.27343    -14.818025
   0.25824    -14.798626
   0.24305    -14.773647
   0.22785    -14.745316
   0.21266    -14.713420
   0.19747    -14.682791
   0.18228    -14.653737
   0.16709    -14.626448
   0.15190    -14.601055
   0.13671    -14.577679
   0.12152    -14.556365
   0.10633    -14.537187
   0.09114    -14.520176
   0.07595    -14.505368
   0.06076    -14.492808
   0.04557    -14.482550
   0.03038    -14.474740
   0.01519    -14.469672
   0.00000    -14.467868
 
# Band-Index   21
   0.00000    -14.454957
   0.01519    -14.457052
   0.03038    -14.462916
   0.04557    -14.471620
   0.06076    -14.482199
   0.07595    -14.493815
   0.09114    -14.505672
   0.10633    -14.516822
   0.12152    -14.526098
   0.13671    -14.532246
   0.15190    -14.534522
   0.16709    -14.533284
   0.18228    -14.544321
   0.19747    -14.556930
   0.21266    -14.569066
   0.22785    -14.580261
   0.24305    -14.589963
   0.25824    -14.597564
   0.27343    -14.602439
   0.28862    -14.604123
   0.28862    -14.604123
   0.29739    -14.604670
   0.30616    -14.606273
   0.31493    -14.608845
   0.32370    -14.612259
   0.33247    -14.616378
   0.34124    -14.621063
   0.35001    -14.626192
   0.35878    -14.631670
   0.36755    -14.637428
   0.37632    -14.643417
   0.38509    -14.649624
   0.39386    -14.656053
   0.40263    -14.662725
   0.41140    -14.669679
   0.42017    -14.676950
   0.42894    -14.684528
   0.43771    -14.692332
   0.44648    -14.699913
   0.45525    -14.704488
   0.45525    -14.704488
   0.47279    -14.694149
   0.49033    -14.680867
   0.50787    -14.667551
   0.52541    -14.654331
   0.54295    -14.641245
   0.56049    -14.628348
   0.57803    -14.615414
   0.59557    -14.597485
   0.61311    -14.575463
   0.63065    -14.555140
   0.64819    -14.537685
   0.66573    -14.523150
   0.68327    -14.510378
   0.70081    -14.498320
   0.71835    -14.486653
   0.73589    -14.475398
   0.75343    -14.465176
   0.77097    -14.457716
   0.78851    -14.454957
 
# Band-Index   22
   0.78851    -14.454920
   0.77097    -14.455364
   0.75343    -14.457271
   0.73589    -14.461391
   0.71835    -14.467991
   0.70081    -14.476958
   0.68327    -14.487792
   0.66573    -14.499265
   0.64819    -14.508951
   0.63065    -14.514134
   0.61311    -14.514077
   0.59557    -14.510072
   0.57803    -14.503951
   0.56049    -14.497156
   0.54295    -14.490617
   0.52541    -14.484880
   0.50787    -14.480255
   0.49033    -14.476900
   0.47279    -14.474880
   0.45525    -14.474211
   0.45525    -14.474211
   0.44648    -14.474377
   0.43771    -14.474867
   0.42894    -14.475675
   0.42017    -14.476791
   0.41140    -14.478194
   0.40263    -14.479875
   0.39386    -14.481810
   0.38509    -14.483971
   0.37632    -14.486335
   0.36755    -14.488863
   0.35878    -14.491507
   0.35001    -14.494209
   0.34124    -14.496895
   0.33247    -14.499472
   0.32370    -14.501839
   0.31493    -14.503873
   0.30616    -14.505450
   0.29739    -14.506450
   0.28862    -14.506793
   0.28862    -14.506793
   0.27343    -14.507343
   0.25824    -14.508987
   0.24305    -14.511710
   0.22785    -14.515436
   0.21266    -14.519961
   0.19747    -14.524914
   0.18228    -14.529671
   0.16709    -14.531625
   0.15190    -14.519165
   0.13671    -14.507238
   0.12152    -14.496078
   0.10633    -14.485933
   0.09114    -14.477005
   0.07595    -14.469481
   0.06076    -14.463514
   0.04557    -14.459187
   0.03038    -14.456499
   0.01519    -14.455231
   0.00000    -14.454920
 
# Band-Index   23
   0.00000    -14.372622
   0.01519    -14.371315
   0.03038    -14.367806
   0.04557    -14.362971
   0.06076    -14.357659
   0.07595    -14.352480
   0.09114    -14.347855
   0.10633    -14.344074
   0.12152    -14.341327
   0.13671    -14.339743
   0.15190    -14.339365
   0.16709    -14.340179
   0.18228    -14.342048
   0.19747    -14.344748
   0.21266    -14.347977
   0.22785    -14.351354
   0.24305    -14.354487
   0.25824    -14.357019
   0.27343    -14.358660
   0.28862    -14.359225
   0.28862    -14.359225
   0.29739    -14.359165
   0.30616    -14.358984
   0.31493    -14.358688
   0.32370    -14.358294
   0.33247    -14.357820
   0.34124    -14.357287
   0.35001    -14.356718
   0.35878    -14.356139
   0.36755    -14.355581
   0.37632    -14.355071
   0.38509    -14.354634
   0.39386    -14.354291
   0.40263    -14.354048
   0.41140    -14.353913
   0.42017    -14.353875
   0.42894    -14.353901
   0.43771    -14.353973
   0.44648    -14.354047
   0.45525    -14.354078
   0.45525    -14.354078
   0.47279    -14.353874
   0.49033    -14.353104
   0.50787    -14.351662
   0.52541    -14.349610
   0.54295    -14.347132
   0.56049    -14.344477
   0.57803    -14.341931
   0.59557    -14.339809
   0.61311    -14.338410
   0.63065    -14.337983
   0.64819    -14.338743
   0.66573    -14.340803
   0.68327    -14.344190
   0.70081    -14.348808
   0.71835    -14.354405
   0.73589    -14.360523
   0.75343    -14.366410
   0.77097    -14.370897
   0.78851    -14.372622
 
# Band-Index   24
   0.78851    -14.079193
   0.77097    -14.079956
   0.75343    -14.082299
   0.73589    -14.086163
   0.71835    -14.091492
   0.70081    -14.098192
   0.68327    -14.106156
   0.66573    -14.115247
   0.64819    -14.125297
   0.63065    -14.136112
   0.61311    -14.147482
   0.59557    -14.159144
   0.57803    -14.170829
   0.56049    -14.182220
   0.54295    -14.192967
   0.52541    -14.202698
   0.50787    -14.211010
   0.49033    -14.217472
   0.47279    -14.221648
   0.45525    -14.223126
   0.45525    -14.223126
   0.44648    -14.222739
   0.43771    -14.221565
   0.42894    -14.219596
   0.42017    -14.216846
   0.41140    -14.213338
   0.40263    -14.209134
   0.39386    -14.204311
   0.38509    -14.198960
   0.37632    -14.193200
   0.36755    -14.187155
   0.35878    -14.180966
   0.35001    -14.174784
   0.34124    -14.168773
   0.33247    -14.163118
   0.32370    -14.158017
   0.31493    -14.153696
   0.30616    -14.150388
   0.29739    -14.148296
   0.28862    -14.147580
   0.28862    -14.147580
   0.27343    -14.147318
   0.25824    -14.146514
   0.24305    -14.145132
   0.22785    -14.143117
   0.21266    -14.140408
   0.19747    -14.136960
   0.18228    -14.132772
   0.16709    -14.127874
   0.15190    -14.122375
   0.13671    -14.116454
   0.12152    -14.110303
   0.10633    -14.104170
   0.09114    -14.098289
   0.07595    -14.092894
   0.06076    -14.088190
   0.04557    -14.084345
   0.03038    -14.081504
   0.01519    -14.079759
   0.00000    -14.079193
 
# Band-Index   25
   0.00000    -14.079170
   0.01519    -14.078990
   0.03038    -14.078397
   0.04557    -14.077435
   0.06076    -14.076138
   0.07595    -14.074549
   0.09114    -14.072719
   0.10633    -14.070707
   0.12152    -14.068576
   0.13671    -14.066393
   0.15190    -14.064212
   0.16709    -14.062104
   0.18228    -14.060112
   0.19747    -14.058277
   0.21266    -14.056663
   0.22785    -14.055293
   0.24305    -14.054198
   0.25824    -14.053402
   0.27343    -14.052920
   0.28862    -14.052758
   0.28862    -14.052758
   0.29739    -14.052283
   0.30616    -14.050913
   0.31493    -14.048786
   0.32370    -14.046094
   0.33247    -14.043018
   0.34124    -14.039732
   0.35001    -14.036376
   0.35878    -14.033063
   0.36755    -14.029880
   0.37632    -14.026889
   0.38509    -14.024141
   0.39386    -14.021677
   0.40263    -14.019510
   0.41140    -14.017659
   0.42017    -14.016146
   0.42894    -14.014966
   0.43771    -14.014132
   0.44648    -14.013635
   0.45525    -14.013471
   0.45525    -14.013471
   0.47279    -14.014107
   0.49033    -14.015949
   0.50787    -14.018877
   0.52541    -14.022742
   0.54295    -14.027373
   0.56049    -14.032578
   0.57803    -14.038160
   0.59557    -14.043912
   0.61311    -14.049639
   0.63065    -14.055143
   0.64819    -14.060253
   0.66573    -14.064836
   0.68327    -14.068800
   0.70081    -14.072106
   0.71835    -14.074738
   0.73589    -14.076727
   0.75343    -14.078110
   0.77097    -14.078921
   0.78851    -14.079170
 
# Band-Index   26
   0.78851     -8.638810
   0.77097     -8.647554
   0.75343     -8.662536
   0.73589     -8.680813
   0.71835     -8.702016
   0.70081     -8.725688
   0.68327     -8.751376
   0.66573     -8.778582
   0.64819     -8.806843
   0.63065     -8.835713
   0.61311     -8.864803
   0.59557     -8.893458
   0.57803     -8.920591
   0.56049     -8.945051
   0.54295     -8.966031
   0.52541     -8.983058
   0.50787     -8.995933
   0.49033     -9.004662
   0.47279     -9.009467
   0.45525     -9.010867
   0.45525     -9.010867
   0.44648     -9.010590
   0.43771     -9.009875
   0.42894     -9.008933
   0.42017     -9.007909
   0.41140     -9.006929
   0.40263     -9.006077
   0.39386     -9.005372
   0.38509     -9.004814
   0.37632     -9.004395
   0.36755     -9.004091
   0.35878     -9.003873
   0.35001     -9.003734
   0.34124     -9.003646
   0.33247     -9.003598
   0.32370     -9.003571
   0.31493     -9.003574
   0.30616     -9.003578
   0.29739     -9.003584
   0.28862     -9.003586
   0.28862     -9.003586
   0.27343     -9.001401
   0.25824     -8.994858
   0.24305     -8.983999
   0.22785     -8.968921
   0.21266     -8.949735
   0.19747     -8.926594
   0.18228     -8.899682
   0.16709     -8.869356
   0.15190     -8.836032
   0.13671     -8.800409
   0.12152     -8.763633
   0.10633     -8.727882
   0.09114     -8.707217
   0.07595     -8.695579
   0.06076     -8.683156
   0.04557     -8.670299
   0.03038     -8.657545
   0.01519     -8.645796
   0.00000     -8.638810
 
# Band-Index   27
   0.00000     -8.625982
   0.01519     -8.627493
   0.03038     -8.632258
   0.04557     -8.640800
   0.06076     -8.653696
   0.07595     -8.671764
   0.09114     -8.696396
   0.10633     -8.717799
   0.12152     -8.727201
   0.13671     -8.735330
   0.15190     -8.742131
   0.16709     -8.747630
   0.18228     -8.751839
   0.19747     -8.754856
   0.21266     -8.756790
   0.22785     -8.757809
   0.24305     -8.758142
   0.25824     -8.758427
   0.27343     -8.760566
   0.28862     -8.761274
   0.28862     -8.761274
   0.29739     -8.775906
   0.30616     -8.793537
   0.31493     -8.811599
   0.32370     -8.829497
   0.33247     -8.846871
   0.34124     -8.863509
   0.35001     -8.879247
   0.35878     -8.893985
   0.36755     -8.907637
   0.37632     -8.920116
   0.38509     -8.931375
   0.39386     -8.941332
   0.40263     -8.949922
   0.41140     -8.957091
   0.42017     -8.962823
   0.42894     -8.967124
   0.43771     -8.970056
   0.44648     -8.971738
   0.45525     -8.972275
   0.45525     -8.972275
   0.47279     -8.970336
   0.49033     -8.964858
   0.50787     -8.956102
   0.52541     -8.944100
   0.54295     -8.928796
   0.56049     -8.910100
   0.57803     -8.887823
   0.59557     -8.861549
   0.61311     -8.830697
   0.63065     -8.794936
   0.64819     -8.754721
   0.66573     -8.711404
   0.68327     -8.669522
   0.70081     -8.642140
   0.71835     -8.633623
   0.73589     -8.633051
   0.75343     -8.631067
   0.77097     -8.627738
   0.78851     -8.625982
 
# Band-Index   28
   0.78851     -8.625965
   0.77097     -8.618364
   0.75343     -8.608631
   0.73589     -8.605409
   0.71835     -8.612548
   0.70081     -8.617494
   0.68327     -8.642376
   0.66573     -8.667681
   0.64819     -8.688734
   0.63065     -8.708273
   0.61311     -8.726596
   0.59557     -8.743667
   0.57803     -8.759407
   0.56049     -8.773710
   0.54295     -8.786453
   0.52541     -8.797463
   0.50787     -8.806524
   0.49033     -8.813398
   0.47279     -8.817788
   0.45525     -8.819326
   0.45525     -8.819326
   0.44648     -8.818917
   0.43771     -8.817661
   0.42894     -8.815544
   0.42017     -8.812522
   0.41140     -8.808585
   0.40263     -8.803741
   0.39386     -8.798003
   0.38509     -8.791420
   0.37632     -8.784076
   0.36755     -8.776107
   0.35878     -8.767680
   0.35001     -8.759083
   0.34124     -8.750728
   0.33247     -8.743240
   0.32370     -8.737612
   0.31493     -8.735267
   0.30616     -8.737854
   0.29739     -8.746191
   0.28862     -8.757816
   0.28862     -8.757816
   0.27343     -8.757910
   0.25824     -8.758094
   0.24305     -8.754857
   0.22785     -8.749882
   0.21266     -8.743484
   0.19747     -8.735651
   0.18228     -8.726386
   0.16709     -8.715665
   0.15190     -8.703395
   0.13671     -8.689401
   0.12152     -8.673197
   0.10633     -8.653796
   0.09114     -8.629794
   0.07595     -8.601836
   0.06076     -8.582449
   0.04557     -8.596894
   0.03038     -8.609179
   0.01519     -8.619644
   0.00000     -8.625965
 
# Band-Index   29
   0.00000     -8.524990
   0.01519     -8.529350
   0.03038     -8.539992
   0.04557     -8.554768
   0.06076     -8.575187
   0.07595     -8.565733
   0.09114     -8.547475
   0.10633     -8.530856
   0.12152     -8.524736
   0.13671     -8.532419
   0.15190     -8.546456
   0.16709     -8.562462
   0.18228     -8.578644
   0.19747     -8.594092
   0.21266     -8.608242
   0.22785     -8.620620
   0.24305     -8.630841
   0.25824     -8.638521
   0.27343     -8.643307
   0.28862     -8.644930
   0.28862     -8.644930
   0.29739     -8.642490
   0.30616     -8.634669
   0.31493     -8.621018
   0.32370     -8.602276
   0.33247     -8.579798
   0.34124     -8.554704
   0.35001     -8.527691
   0.35878     -8.499199
   0.36755     -8.469501
   0.37632     -8.438769
   0.38509     -8.407135
   0.39386     -8.374705
   0.40263     -8.341541
   0.41140     -8.307739
   0.42017     -8.273403
   0.42894     -8.238630
   0.43771     -8.203618
   0.44648     -8.169086
   0.45525     -8.144021
   0.45525     -8.144021
   0.47279     -8.182609
   0.49033     -8.234249
   0.50787     -8.285028
   0.52541     -8.333575
   0.54295     -8.379246
   0.56049     -8.421668
   0.57803     -8.460521
   0.59557     -8.495623
   0.61311     -8.526799
   0.63065     -8.553917
   0.64819     -8.576820
   0.66573     -8.595341
   0.68327     -8.609056
   0.70081     -8.602548
   0.71835     -8.557539
   0.73589     -8.546621
   0.75343     -8.541174
   0.77097     -8.530499
   0.78851     -8.524990
 
# Band-Index   30
   0.78851     -8.524953
   0.77097     -8.521181
   0.75343     -8.513926
   0.73589     -8.520953
   0.71835     -8.539363
   0.70081     -8.525046
   0.68327     -8.507225
   0.66573     -8.487981
   0.64819     -8.467715
   0.63065     -8.446154
   0.61311     -8.422810
   0.59557     -8.397285
   0.57803     -8.369368
   0.56049     -8.339061
   0.54295     -8.306552
   0.52541     -8.272285
   0.50787     -8.236907
   0.49033     -8.201444
   0.47279     -8.167613
   0.45525     -8.141126
   0.45525     -8.141126
   0.44648     -8.141280
   0.43771     -8.152267
   0.42894     -8.170283
   0.42017     -8.191961
   0.41140     -8.215599
   0.40263     -8.240275
   0.39386     -8.265395
   0.38509     -8.290544
   0.37632     -8.315436
   0.36755     -8.339798
   0.35878     -8.363372
   0.35001     -8.385904
   0.34124     -8.407088
   0.33247     -8.426559
   0.32370     -8.443874
   0.31493     -8.458464
   0.30616     -8.469658
   0.29739     -8.476760
   0.28862     -8.479199
   0.28862     -8.479199
   0.27343     -8.479197
   0.25824     -8.479201
   0.24305     -8.479276
   0.22785     -8.479530
   0.21266     -8.480084
   0.19747     -8.481078
   0.18228     -8.482658
   0.16709     -8.484907
   0.15190     -8.487803
   0.13671     -8.491166
   0.12152     -8.494483
   0.10633     -8.496897
   0.09114     -8.496934
   0.07595     -8.492271
   0.06076     -8.491463
   0.04557     -8.502744
   0.03038     -8.513821
   0.01519     -8.521956
   0.00000     -8.524953
 
# Band-Index   31
   0.00000     -8.464088
   0.01519     -8.461146
   0.03038     -8.457861
   0.04557     -8.464861
   0.06076     -8.480501
   0.07595     -8.482869
   0.09114     -8.478929
   0.10633     -8.477390
   0.12152     -8.467969
   0.13671     -8.445121
   0.15190     -8.414508
   0.16709     -8.379586
   0.18228     -8.341634
   0.19747     -8.301536
   0.21266     -8.260388
   0.22785     -8.220038
   0.24305     -8.183783
   0.25824     -8.156137
   0.27343     -8.139808
   0.28862     -8.134545
   0.28862     -8.134545
   0.29739     -8.134211
   0.30616     -8.133218
   0.31493     -8.131583
   0.32370     -8.129328
   0.33247     -8.126476
   0.34124     -8.123057
   0.35001     -8.119139
   0.35878     -8.114788
   0.36755     -8.110102
   0.37632     -8.105205
   0.38509     -8.100274
   0.39386     -8.095578
   0.40263     -8.091510
   0.41140     -8.088937
   0.42017     -8.089882
   0.42894     -8.095614
   0.43771     -8.104049
   0.44648     -8.112848
   0.45525     -8.117498
   0.45525     -8.117498
   0.47279     -8.125647
   0.49033     -8.138166
   0.50787     -8.153410
   0.52541     -8.170533
   0.54295     -8.189481
   0.56049     -8.210401
   0.57803     -8.233347
   0.59557     -8.258164
   0.61311     -8.284518
   0.63065     -8.312021
   0.64819     -8.340214
   0.66573     -8.368558
   0.68327     -8.396317
   0.70081     -8.422484
   0.71835     -8.445154
   0.73589     -8.458671
   0.75343     -8.457545
   0.77097     -8.460382
   0.78851     -8.464088
 
# Band-Index   32
   0.78851     -8.288304
   0.77097     -8.323117
   0.75343     -8.358301
   0.73589     -8.366589
   0.71835     -8.354022
   0.70081     -8.336438
   0.68327     -8.325970
   0.66573     -8.316211
   0.64819     -8.301304
   0.63065     -8.281626
   0.61311     -8.258697
   0.59557     -8.234126
   0.57803     -8.209158
   0.56049     -8.184558
   0.54295     -8.160740
   0.52541     -8.137988
   0.50787     -8.116647
   0.49033     -8.097249
   0.47279     -8.081519
   0.45525     -8.117007
   0.45525     -8.117007
   0.44648     -8.101976
   0.43771     -8.084887
   0.42894     -8.079089
   0.42017     -8.077274
   0.41140     -8.073466
   0.40263     -8.068005
   0.39386     -8.062342
   0.38509     -8.056912
   0.37632     -8.051814
   0.36755     -8.047108
   0.35878     -8.042791
   0.35001     -8.038906
   0.34124     -8.035470
   0.33247     -8.032502
   0.32370     -8.030029
   0.31493     -8.028074
   0.30616     -8.026664
   0.29739     -8.025810
   0.28862     -8.025519
   0.28862     -8.025519
   0.27343     -8.031553
   0.25824     -8.055360
   0.24305     -8.088977
   0.22785     -8.117808
   0.21266     -8.144359
   0.19747     -8.170509
   0.18228     -8.196816
   0.16709     -8.223068
   0.15190     -8.248635
   0.13671     -8.272580
   0.12152     -8.293420
   0.10633     -8.309900
   0.09114     -8.330021
   0.07595     -8.348389
   0.06076     -8.362840
   0.04557     -8.367072
   0.03038     -8.350965
   0.01519     -8.317364
   0.00000     -8.288304
 
# Band-Index   33
   0.00000     -8.261380
   0.01519     -8.265997
   0.03038     -8.277901
   0.04557     -8.292964
   0.06076     -8.306996
   0.07595     -8.316120
   0.09114     -8.317180
   0.10633     -8.309112
   0.12152     -8.288603
   0.13671     -8.266082
   0.15190     -8.242044
   0.16709     -8.216326
   0.18228     -8.188871
   0.19747     -8.159921
   0.21266     -8.130058
   0.22785     -8.100285
   0.24305     -8.072184
   0.25824     -8.048190
   0.27343     -8.018663
   0.28862     -7.997050
   0.28862     -7.997050
   0.29739     -7.996908
   0.30616     -7.996467
   0.31493     -7.995771
   0.32370     -7.994887
   0.33247     -7.993896
   0.34124     -7.992908
   0.35001     -7.992054
   0.35878     -7.991519
   0.36755     -7.991571
   0.37632     -7.992798
   0.38509     -7.997426
   0.39386     -8.006688
   0.40263     -8.017570
   0.41140     -8.029231
   0.42017     -8.041763
   0.42894     -8.055625
   0.43771     -8.067836
   0.44648     -8.070181
   0.45525     -8.068730
   0.45525     -8.068730
   0.47279     -8.056915
   0.49033     -8.040105
   0.50787     -8.044133
   0.52541     -8.057819
   0.54295     -8.077765
   0.56049     -8.101640
   0.57803     -8.127998
   0.59557     -8.155999
   0.61311     -8.185033
   0.63065     -8.214492
   0.64819     -8.243707
   0.66573     -8.271907
   0.68327     -8.297403
   0.70081     -8.312754
   0.71835     -8.310053
   0.73589     -8.297844
   0.75343     -8.281805
   0.77097     -8.267405
   0.78851     -8.261380
 
# Band-Index   34
   0.78851     -8.261372
   0.77097     -8.231665
   0.75343     -8.204021
   0.73589     -8.186690
   0.71835     -8.174781
   0.70081     -8.164778
   0.68327     -8.154881
   0.66573     -8.144122
   0.64819     -8.131838
   0.63065     -8.117527
   0.61311     -8.100741
   0.59557     -8.081283
   0.57803     -8.059432
   0.56049     -8.036195
   0.54295     -8.013303
   0.52541     -7.993076
   0.50787     -7.978397
   0.49033     -7.984058
   0.47279     -8.042842
   0.45525     -8.056816
   0.45525     -8.056816
   0.44648     -8.052798
   0.43771     -8.044392
   0.42894     -8.032904
   0.42017     -8.019788
   0.41140     -8.008262
   0.40263     -8.000030
   0.39386     -7.994575
   0.38509     -7.990091
   0.37632     -7.982881
   0.36755     -7.973713
   0.35878     -7.964473
   0.35001     -7.955502
   0.34124     -7.946857
   0.33247     -7.938540
   0.32370     -7.930552
   0.31493     -7.922898
   0.30616     -7.915595
   0.29739     -7.908656
   0.28862     -7.902639
   0.28862     -7.902639
   0.27343     -7.904927
   0.25824     -7.914525
   0.24305     -7.928956
   0.22785     -7.947148
   0.21266     -7.968235
   0.19747     -7.991404
   0.18228     -8.015828
   0.16709     -8.040685
   0.15190     -8.065184
   0.13671     -8.088604
   0.12152     -8.110271
   0.10633     -8.129749
   0.09114     -8.146880
   0.07595     -8.161985
   0.06076     -8.176015
   0.04557     -8.190884
   0.03038     -8.209819
   0.01519     -8.236213
   0.00000     -8.261372
 
# Band-Index   35
   0.00000     -8.059326
   0.01519     -8.052568
   0.03038     -8.034122
   0.04557     -8.007417
   0.06076     -7.975313
   0.07595     -7.939598
   0.09114     -7.901366
   0.10633     -7.861334
   0.12152     -7.819996
   0.13671     -7.777818
   0.15190     -7.735365
   0.16709     -7.693719
   0.18228     -7.656060
   0.19747     -7.635968
   0.21266     -7.661270
   0.22785     -7.713535
   0.24305     -7.770799
   0.25824     -7.826918
   0.27343     -7.876834
   0.28862     -7.901481
   0.28862     -7.901481
   0.29739     -7.895912
   0.30616     -7.890308
   0.31493     -7.885298
   0.32370     -7.881031
   0.33247     -7.877697
   0.34124     -7.875575
   0.35001     -7.875036
   0.35878     -7.876578
   0.36755     -7.880775
   0.37632     -7.888151
   0.38509     -7.898865
   0.39386     -7.912414
   0.40263     -7.927418
   0.41140     -7.941778
   0.42017     -7.953355
   0.42894     -7.961233
   0.43771     -7.965883
   0.44648     -7.968155
   0.45525     -7.968766
   0.45525     -7.968766
   0.47279     -7.967567
   0.49033     -7.964685
   0.50787     -7.905720
   0.52541     -7.837407
   0.54295     -7.783819
   0.56049     -7.761623
   0.57803     -7.760660
   0.59557     -7.769405
   0.61311     -7.784377
   0.63065     -7.804379
   0.64819     -7.828817
   0.66573     -7.857260
   0.68327     -7.889151
   0.70081     -7.923709
   0.71835     -7.959675
   0.73589     -7.995117
   0.75343     -8.026972
   0.77097     -8.050399
   0.78851     -8.059326
 
# Band-Index   36
   0.78851     -8.059277
   0.77097     -8.045259
   0.75343     -8.004974
   0.73589     -7.945214
   0.71835     -7.873661
   0.70081     -7.795102
   0.68327     -7.712061
   0.66573     -7.626158
   0.64819     -7.539119
   0.63065     -7.459381
   0.61311     -7.462053
   0.59557     -7.520738
   0.57803     -7.585903
   0.56049     -7.649957
   0.54295     -7.700864
   0.52541     -7.729019
   0.50787     -7.751589
   0.49033     -7.774401
   0.47279     -7.789901
   0.45525     -7.794654
   0.45525     -7.794654
   0.44648     -7.793717
   0.43771     -7.791245
   0.42894     -7.787716
   0.42017     -7.783512
   0.41140     -7.778869
   0.40263     -7.773811
   0.39386     -7.768136
   0.38509     -7.761561
   0.37632     -7.753995
   0.36755     -7.745666
   0.35878     -7.737090
   0.35001     -7.728809
   0.34124     -7.721256
   0.33247     -7.714688
   0.32370     -7.709253
   0.31493     -7.705005
   0.30616     -7.701973
   0.29739     -7.700152
   0.28862     -7.699542
   0.28862     -7.699542
   0.27343     -7.691657
   0.25824     -7.670134
   0.24305     -7.639553
   0.22785     -7.604669
   0.21266     -7.570447
   0.19747     -7.544243
   0.18228     -7.536614
   0.16709     -7.552333
   0.15190     -7.585310
   0.13671     -7.629264
   0.12152     -7.680708
   0.10633     -7.737324
   0.09114     -7.797073
   0.07595     -7.857905
   0.06076     -7.917435
   0.04557     -7.972487
   0.03038     -8.018288
   0.01519     -8.048745
   0.00000     -8.059277
 
# Band-Index   37
   0.00000     -7.436208
   0.01519     -7.434474
   0.03038     -7.429301
   0.04557     -7.420802
   0.06076     -7.409196
   0.07595     -7.394907
   0.09114     -7.378780
   0.10633     -7.362542
   0.12152     -7.349533
   0.13671     -7.344954
   0.15190     -7.358099
   0.16709     -7.423248
   0.18228     -7.483049
   0.19747     -7.523907
   0.21266     -7.517908
   0.22785     -7.483424
   0.24305     -7.442176
   0.25824     -7.399952
   0.27343     -7.360605
   0.28862     -7.338838
   0.28862     -7.338838
   0.29739     -7.358738
   0.30616     -7.393623
   0.31493     -7.430507
   0.32370     -7.467054
   0.33247     -7.502418
   0.34124     -7.536089
   0.35001     -7.567593
   0.35878     -7.596482
   0.36755     -7.622316
   0.37632     -7.644757
   0.38509     -7.663622
   0.39386     -7.678906
   0.40263     -7.690731
   0.41140     -7.699352
   0.42017     -7.705174
   0.42894     -7.708756
   0.43771     -7.710737
   0.44648     -7.711688
   0.45525     -7.711971
   0.45525     -7.711971
   0.47279     -7.710534
   0.49033     -7.704191
   0.50787     -7.688681
   0.52541     -7.659385
   0.54295     -7.617449
   0.56049     -7.567780
   0.57803     -7.513571
   0.59557     -7.457245
   0.61311     -7.402779
   0.63065     -7.384599
   0.64819     -7.362013
   0.66573     -7.357063
   0.68327     -7.367271
   0.70081     -7.383814
   0.71835     -7.400977
   0.73589     -7.415843
   0.75343     -7.427027
   0.77097     -7.433899
   0.78851     -7.436208
 
# Band-Index   38
   0.78851     -6.722810
   0.77097     -6.767059
   0.75343     -6.838021
   0.73589     -6.914249
   0.71835     -6.991211
   0.70081     -7.067225
   0.68327     -7.141408
   0.66573     -7.212887
   0.64819     -7.280071
   0.63065     -7.339575
   0.61311     -7.337456
   0.59557     -7.297550
   0.57803     -7.364093
   0.56049     -7.428273
   0.54295     -7.486873
   0.52541     -7.537411
   0.50787     -7.577859
   0.49033     -7.607294
   0.47279     -7.625521
   0.45525     -7.631848
   0.45525     -7.631848
   0.44648     -7.630241
   0.43771     -7.625481
   0.42894     -7.617794
   0.42017     -7.607481
   0.41140     -7.594826
   0.40263     -7.580066
   0.39386     -7.563371
   0.38509     -7.544867
   0.37632     -7.524671
   0.36755     -7.502895
   0.35878     -7.479689
   0.35001     -7.455249
   0.34124     -7.429850
   0.33247     -7.403879
   0.32370     -7.377950
   0.31493     -7.353079
   0.30616     -7.331156
   0.29739     -7.315724
   0.28862     -7.311514
   0.28862     -7.311514
   0.27343     -7.315084
   0.25824     -7.324982
   0.24305     -7.339395
   0.22785     -7.356328
   0.21266     -7.373176
   0.19747     -7.385022
   0.18228     -7.384114
   0.16709     -7.369566
   0.15190     -7.352754
   0.13671     -7.290805
   0.12152     -7.222478
   0.10633     -7.153616
   0.09114     -7.084611
   0.07595     -7.015820
   0.06076     -6.947687
   0.04557     -6.880836
   0.03038     -6.816529
   0.01519     -6.758198
   0.00000     -6.722810
 
# Band-Index   39
   0.00000     -6.722805
   0.01519     -6.737983
   0.03038     -6.775197
   0.04557     -6.822554
   0.06076     -6.873588
   0.07595     -6.925036
   0.09114     -6.974491
   0.10633     -7.019103
   0.12152     -7.054612
   0.13671     -7.075164
   0.15190     -7.076700
   0.16709     -7.063213
   0.18228     -7.047659
   0.19747     -7.044683
   0.21266     -7.083455
   0.22785     -7.125914
   0.24305     -7.167852
   0.25824     -7.208970
   0.27343     -7.247154
   0.28862     -7.268467
   0.28862     -7.268467
   0.29739     -7.249709
   0.30616     -7.213179
   0.31493     -7.172296
   0.32370     -7.130162
   0.33247     -7.089771
   0.34124     -7.068960
   0.35001     -7.068406
   0.35878     -7.071949
   0.36755     -7.076773
   0.37632     -7.082091
   0.38509     -7.087502
   0.39386     -7.092771
   0.40263     -7.097714
   0.41140     -7.102190
   0.42017     -7.106082
   0.42894     -7.109273
   0.43771     -7.111666
   0.44648     -7.113168
   0.45525     -7.113685
   0.45525     -7.113685
   0.47279     -7.111484
   0.49033     -7.104720
   0.50787     -7.093671
   0.52541     -7.080120
   0.54295     -7.070928
   0.56049     -7.092754
   0.57803     -7.164038
   0.59557     -7.250152
   0.61311     -7.226003
   0.63065     -7.158234
   0.64819     -7.095745
   0.66573     -7.042514
   0.68327     -6.990972
   0.70081     -6.936852
   0.71835     -6.882180
   0.73589     -6.829494
   0.75343     -6.781226
   0.77097     -6.741406
   0.78851     -6.722805
 
# Band-Index   40
   0.78851     -6.694182
   0.77097     -6.683911
   0.75343     -6.703918
   0.73589     -6.747745
   0.71835     -6.801774
   0.70081     -6.861217
   0.68327     -6.923174
   0.66573     -6.982625
   0.64819     -7.025953
   0.63065     -7.038534
   0.61311     -7.027084
   0.59557     -7.007505
   0.57803     -6.994287
   0.56049     -6.980422
   0.54295     -6.925216
   0.52541     -6.839900
   0.50787     -6.748456
   0.49033     -6.658913
   0.47279     -6.581251
   0.45525     -6.545315
   0.45525     -6.545315
   0.44648     -6.554410
   0.43771     -6.576830
   0.42894     -6.606250
   0.42017     -6.639445
   0.41140     -6.675224
   0.40263     -6.714523
   0.39386     -6.759184
   0.38509     -6.805823
   0.37632     -6.852653
   0.36755     -6.899232
   0.35878     -6.945349
   0.35001     -6.990543
   0.34124     -7.032881
   0.33247     -7.058236
   0.32370     -7.071186
   0.31493     -7.090212
   0.30616     -7.111332
   0.29739     -7.127914
   0.28862     -7.134344
   0.28862     -7.134344
   0.27343     -7.129738
   0.25824     -7.116958
   0.24305     -7.098396
   0.22785     -7.077069
   0.21266     -7.056988
   0.19747     -7.040550
   0.18228     -6.997347
   0.16709     -6.954221
   0.15190     -6.911771
   0.13671     -6.870717
   0.12152     -6.831824
   0.10633     -6.795854
   0.09114     -6.763516
   0.07595     -6.735430
   0.06076     -6.712177
   0.04557     -6.694450
   0.03038     -6.683621
   0.01519     -6.683259
   0.00000     -6.694182
 
# Band-Index   41
   0.00000     -6.572852
   0.01519     -6.585322
   0.03038     -6.601815
   0.04557     -6.620000
   0.06076     -6.641776
   0.07595     -6.667447
   0.09114     -6.696577
   0.10633     -6.728332
   0.12152     -6.761573
   0.13671     -6.794764
   0.15190     -6.825574
   0.16709     -6.849784
   0.18228     -6.859375
   0.19747     -6.881682
   0.21266     -6.919815
   0.22785     -6.953608
   0.24305     -6.981836
   0.25824     -7.003204
   0.27343     -7.016550
   0.28862     -7.021095
   0.28862     -7.021095
   0.29739     -7.021077
   0.30616     -7.020633
   0.31493     -7.018166
   0.32370     -7.009638
   0.33247     -6.990326
   0.34124     -6.961993
   0.35001     -6.929031
   0.35878     -6.893798
   0.36755     -6.857321
   0.37632     -6.820157
   0.38509     -6.782558
   0.39386     -6.744523
   0.40263     -6.704666
   0.41140     -6.660101
   0.42017     -6.613286
   0.42894     -6.566211
   0.43771     -6.519617
   0.44648     -6.474762
   0.45525     -6.455164
   0.45525     -6.455164
   0.47279     -6.497151
   0.49033     -6.559957
   0.50787     -6.623543
   0.52541     -6.685287
   0.54295     -6.742495
   0.56049     -6.790410
   0.57803     -6.819836
   0.59557     -6.820691
   0.61311     -6.795819
   0.63065     -6.755816
   0.64819     -6.707529
   0.66573     -6.654366
   0.68327     -6.598698
   0.70081     -6.546591
   0.71835     -6.546360
   0.73589     -6.563482
   0.75343     -6.580459
   0.77097     -6.584674
   0.78851     -6.572852
 
# Band-Index   42
   0.78851     -6.572823
   0.77097     -6.550078
   0.75343     -6.516972
   0.73589     -6.494216
   0.71835     -6.496215
   0.70081     -6.524804
   0.68327     -6.516830
   0.66573     -6.508708
   0.64819     -6.503192
   0.63065     -6.500178
   0.61311     -6.499487
   0.59557     -6.500837
   0.57803     -6.503605
   0.56049     -6.506643
   0.54295     -6.508500
   0.52541     -6.507705
   0.50787     -6.502874
   0.49033     -6.492269
   0.47279     -6.472185
   0.45525     -6.445182
   0.45525     -6.445182
   0.44648     -6.457251
   0.43771     -6.460142
   0.42894     -6.466901
   0.42017     -6.477183
   0.41140     -6.489623
   0.40263     -6.503323
   0.39386     -6.517715
   0.38509     -6.532405
   0.37632     -6.547069
   0.36755     -6.561434
   0.35878     -6.575253
   0.35001     -6.588266
   0.34124     -6.600231
   0.33247     -6.610902
   0.32370     -6.620048
   0.31493     -6.627446
   0.30616     -6.632896
   0.29739     -6.636234
   0.28862     -6.637358
   0.28862     -6.637358
   0.27343     -6.646409
   0.25824     -6.672749
   0.24305     -6.713058
   0.22785     -6.761074
   0.21266     -6.808556
   0.19747     -6.845092
   0.18228     -6.840213
   0.16709     -6.796079
   0.15190     -6.749733
   0.13671     -6.701476
   0.12152     -6.651487
   0.10633     -6.600085
   0.09114     -6.547916
   0.07595     -6.496681
   0.06076     -6.454129
   0.04557     -6.460298
   0.03038     -6.507388
   0.01519     -6.552630
   0.00000     -6.572823
 
# Band-Index   43
   0.00000     -6.540746
   0.01519     -6.516479
   0.03038     -6.472921
   0.04557     -6.424108
   0.06076     -6.374597
   0.07595     -6.328383
   0.09114     -6.293079
   0.10633     -6.280061
   0.12152     -6.285887
   0.13671     -6.299012
   0.15190     -6.314108
   0.16709     -6.329126
   0.18228     -6.342877
   0.19747     -6.354303
   0.21266     -6.362154
   0.22785     -6.364776
   0.24305     -6.360148
   0.25824     -6.347015
   0.27343     -6.328742
   0.28862     -6.318789
   0.28862     -6.318789
   0.29739     -6.318833
   0.30616     -6.318966
   0.31493     -6.319192
   0.32370     -6.319529
   0.33247     -6.320005
   0.34124     -6.320641
   0.35001     -6.321480
   0.35878     -6.322592
   0.36755     -6.324069
   0.37632     -6.326082
   0.38509     -6.328974
   0.39386     -6.339015
   0.40263     -6.359362
   0.41140     -6.378535
   0.42017     -6.395775
   0.42894     -6.410354
   0.43771     -6.421198
   0.44648     -6.428729
   0.45525     -6.431302
   0.45525     -6.431302
   0.47279     -6.422217
   0.49033     -6.406353
   0.50787     -6.405719
   0.52541     -6.409355
   0.54295     -6.414326
   0.56049     -6.418823
   0.57803     -6.421604
   0.59557     -6.422023
   0.61311     -6.420352
   0.63065     -6.417913
   0.64819     -6.416717
   0.66573     -6.418508
   0.68327     -6.423991
   0.70081     -6.431891
   0.71835     -6.432261
   0.73589     -6.404837
   0.75343     -6.447890
   0.77097     -6.509340
   0.78851     -6.540746
 
# Band-Index   44
   0.78851     -6.268491
   0.77097     -6.289591
   0.75343     -6.334935
   0.73589     -6.355896
   0.71835     -6.293735
   0.70081     -6.256004
   0.68327     -6.257901
   0.66573     -6.269949
   0.64819     -6.281426
   0.63065     -6.290131
   0.61311     -6.296248
   0.59557     -6.300838
   0.57803     -6.305223
   0.56049     -6.310742
   0.54295     -6.318888
   0.52541     -6.331455
   0.50787     -6.350475
   0.49033     -6.376684
   0.47279     -6.399848
   0.45525     -6.425471
   0.45525     -6.425471
   0.44648     -6.405442
   0.43771     -6.385171
   0.42894     -6.367897
   0.42017     -6.354359
   0.41140     -6.344347
   0.40263     -6.337116
   0.39386     -6.331516
   0.38509     -6.315742
   0.37632     -6.292771
   0.36755     -6.268834
   0.35878     -6.244392
   0.35001     -6.219829
   0.34124     -6.195631
   0.33247     -6.172401
   0.32370     -6.150940
   0.31493     -6.132243
   0.30616     -6.117503
   0.29739     -6.107973
   0.28862     -6.104658
   0.28862     -6.104658
   0.27343     -6.082870
   0.25824     -6.030058
   0.24305     -5.964101
   0.22785     -5.963297
   0.21266     -5.980096
   0.19747     -5.999330
   0.18228     -6.021434
   0.16709     -6.047361
   0.15190     -6.078409
   0.13671     -6.115655
   0.12152     -6.159226
   0.10633     -6.208202
   0.09114     -6.260904
   0.07595     -6.314811
   0.06076     -6.361705
   0.04557     -6.361495
   0.03038     -6.321923
   0.01519     -6.284734
   0.00000     -6.268491
 
# Band-Index   45
   0.00000     -6.113914
   0.01519     -6.118460
   0.03038     -6.130581
   0.04557     -6.146934
   0.06076     -6.164029
   0.07595     -6.177838
   0.09114     -6.180667
   0.10633     -6.161234
   0.12152     -6.123137
   0.13671     -6.078124
   0.15190     -6.031637
   0.16709     -5.985907
   0.18228     -5.942427
   0.19747     -5.903456
   0.21266     -5.877526
   0.22785     -5.900581
   0.24305     -5.949017
   0.25824     -5.937790
   0.27343     -5.930479
   0.28862     -5.927910
   0.28862     -5.927910
   0.29739     -5.928169
   0.30616     -5.928926
   0.31493     -5.930207
   0.32370     -5.932051
   0.33247     -5.934491
   0.34124     -5.937593
   0.35001     -5.963106
   0.35878     -5.999822
   0.36755     -6.036816
   0.37632     -6.073985
   0.38509     -6.111254
   0.39386     -6.148596
   0.40263     -6.186044
   0.41140     -6.223609
   0.42017     -6.261295
   0.42894     -6.298831
   0.43771     -6.335178
   0.44648     -6.366599
   0.45525     -6.381168
   0.45525     -6.381168
   0.47279     -6.324624
   0.49033     -6.243616
   0.50787     -6.176624
   0.52541     -6.132562
   0.54295     -6.103331
   0.56049     -6.080408
   0.57803     -6.061047
   0.59557     -6.044840
   0.61311     -6.032054
   0.63065     -6.023224
   0.64819     -6.019392
   0.66573     -6.025824
   0.68327     -6.073736
   0.70081     -6.138649
   0.71835     -6.163376
   0.73589     -6.152982
   0.75343     -6.135015
   0.77097     -6.119892
   0.78851     -6.113914
 
# Band-Index   46
   0.78851     -6.113902
   0.77097     -6.099216
   0.75343     -6.071749
   0.73589     -6.047551
   0.71835     -6.029780
   0.70081     -6.016934
   0.68327     -6.004821
   0.66573     -5.965532
   0.64819     -5.885718
   0.63065     -5.801782
   0.61311     -5.737506
   0.59557     -5.752340
   0.57803     -5.807968
   0.56049     -5.875177
   0.54295     -5.947148
   0.52541     -6.018899
   0.50787     -6.081468
   0.49033     -6.125816
   0.47279     -6.154180
   0.45525     -6.165163
   0.45525     -6.165163
   0.44648     -6.161907
   0.43771     -6.151579
   0.42894     -6.133747
   0.42017     -6.108810
   0.41140     -6.078049
   0.40263     -6.043407
   0.39386     -6.007820
   0.38509     -5.977984
   0.37632     -5.961259
   0.36755     -5.952324
   0.35878     -5.946196
   0.35001     -5.941433
   0.34124     -5.926851
   0.33247     -5.891346
   0.32370     -5.857023
   0.31493     -5.824554
   0.30616     -5.794971
   0.29739     -5.769590
   0.28862     -5.751838
   0.28862     -5.751838
   0.27343     -5.751007
   0.25824     -5.761162
   0.24305     -5.779690
   0.22785     -5.798095
   0.21266     -5.785413
   0.19747     -5.796858
   0.18228     -5.828924
   0.16709     -5.864007
   0.15190     -5.898413
   0.13671     -5.929488
   0.12152     -5.956104
   0.10633     -5.978623
   0.09114     -5.998198
   0.07595     -6.016348
   0.06076     -6.034777
   0.04557     -6.055305
   0.03038     -6.078915
   0.01519     -6.102463
   0.00000     -6.113902
 
# Band-Index   47
   0.00000     -5.893393
   0.01519     -5.888150
   0.03038     -5.874081
   0.04557     -5.854578
   0.06076     -5.832854
   0.07595     -5.811198
   0.09114     -5.791062
   0.10633     -5.773190
   0.12152     -5.757815
   0.13671     -5.744949
   0.15190     -5.734704
   0.16709     -5.728026
   0.18228     -5.728514
   0.19747     -5.746465
   0.21266     -5.771744
   0.22785     -5.756278
   0.24305     -5.749950
   0.25824     -5.749463
   0.27343     -5.749167
   0.28862     -5.745085
   0.28862     -5.745085
   0.29739     -5.730529
   0.30616     -5.713069
   0.31493     -5.693314
   0.32370     -5.670929
   0.33247     -5.687712
   0.34124     -5.730486
   0.35001     -5.774234
   0.35878     -5.818075
   0.36755     -5.861123
   0.37632     -5.901517
   0.38509     -5.933726
   0.39386     -5.951723
   0.40263     -5.961951
   0.41140     -5.969781
   0.42017     -5.976559
   0.42894     -5.982443
   0.43771     -5.987224
   0.44648     -5.990508
   0.45525     -5.991742
   0.45525     -5.991742
   0.47279     -5.985269
   0.49033     -5.961445
   0.50787     -5.915618
   0.52541     -5.849190
   0.54295     -5.768195
   0.56049     -5.679007
   0.57803     -5.589181
   0.59557     -5.601411
   0.61311     -5.653730
   0.63065     -5.650838
   0.64819     -5.653649
   0.66573     -5.676622
   0.68327     -5.713946
   0.70081     -5.755816
   0.71835     -5.796855
   0.73589     -5.834439
   0.75343     -5.865600
   0.77097     -5.886250
   0.78851     -5.893393
 
# Band-Index   48
   0.78851     -5.893314
   0.77097     -5.884419
   0.75343     -5.859774
   0.73589     -5.823265
   0.71835     -5.779513
   0.70081     -5.733736
   0.68327     -5.689846
   0.66573     -5.647947
   0.64819     -5.603927
   0.63065     -5.557787
   0.61311     -5.515407
   0.59557     -5.509249
   0.57803     -5.524395
   0.56049     -5.486150
   0.54295     -5.485575
   0.52541     -5.493318
   0.50787     -5.502104
   0.49033     -5.509512
   0.47279     -5.514307
   0.45525     -5.515914
   0.45525     -5.515914
   0.44648     -5.515548
   0.43771     -5.514535
   0.42894     -5.513109
   0.42017     -5.511645
   0.41140     -5.510708
   0.40263     -5.511147
   0.39386     -5.514100
   0.38509     -5.520880
   0.37632     -5.532561
   0.36755     -5.549420
   0.35878     -5.570671
   0.35001     -5.594898
   0.34124     -5.620542
   0.33247     -5.646204
   0.32370     -5.647079
   0.31493     -5.612706
   0.30616     -5.593498
   0.29739     -5.592328
   0.28862     -5.594421
   0.28862     -5.594421
   0.27343     -5.599398
   0.25824     -5.610922
   0.24305     -5.623238
   0.22785     -5.632020
   0.21266     -5.632116
   0.19747     -5.611518
   0.18228     -5.560272
   0.16709     -5.523926
   0.15190     -5.529280
   0.13671     -5.551189
   0.12152     -5.589302
   0.10633     -5.637109
   0.09114     -5.688927
   0.07595     -5.740977
   0.06076     -5.790122
   0.04557     -5.832992
   0.03038     -5.866027
   0.01519     -5.886482
   0.00000     -5.893314
 
# Band-Index   49
   0.00000     -5.384331
   0.01519     -5.383684
   0.03038     -5.381626
   0.04557     -5.377794
   0.06076     -5.371837
   0.07595     -5.363745
   0.09114     -5.354461
   0.10633     -5.346999
   0.12152     -5.348958
   0.13671     -5.373637
   0.15190     -5.425675
   0.16709     -5.492658
   0.18228     -5.527270
   0.19747     -5.530857
   0.21266     -5.528662
   0.22785     -5.517625
   0.24305     -5.498807
   0.25824     -5.477106
   0.27343     -5.459411
   0.28862     -5.452471
   0.28862     -5.452471
   0.29739     -5.480005
   0.30616     -5.503012
   0.31493     -5.503473
   0.32370     -5.486903
   0.33247     -5.464385
   0.34124     -5.440932
   0.35001     -5.418645
   0.35878     -5.398170
   0.36755     -5.378804
   0.37632     -5.358772
   0.38509     -5.336309
   0.39386     -5.310564
   0.40263     -5.281732
   0.41140     -5.250512
   0.42017     -5.217670
   0.42894     -5.183912
   0.43771     -5.150039
   0.44648     -5.117675
   0.45525     -5.098136
   0.45525     -5.098136
   0.47279     -5.130863
   0.49033     -5.177653
   0.50787     -5.230471
   0.52541     -5.288738
   0.54295     -5.352353
   0.56049     -5.416509
   0.57803     -5.451256
   0.59557     -5.457135
   0.61311     -5.445914
   0.63065     -5.433607
   0.64819     -5.409474
   0.66573     -5.377596
   0.68327     -5.352693
   0.70081     -5.355170
   0.71835     -5.366396
   0.73589     -5.375163
   0.75343     -5.380633
   0.77097     -5.383466
   0.78851     -5.384331
 
# Band-Index   50
   0.78851     -5.340222
   0.77097     -5.339336
   0.75343     -5.336687
   0.73589     -5.332262
   0.71835     -5.326070
   0.70081     -5.318135
   0.68327     -5.308466
   0.66573     -5.297093
   0.64819     -5.284043
   0.63065     -5.269347
   0.61311     -5.350182
   0.59557     -5.391691
   0.57803     -5.359468
   0.56049     -5.304815
   0.54295     -5.243312
   0.52541     -5.193808
   0.50787     -5.162524
   0.49033     -5.131502
   0.47279     -5.100068
   0.45525     -5.079034
   0.45525     -5.079034
   0.44648     -5.078514
   0.43771     -5.084298
   0.42894     -5.090891
   0.42017     -5.097520
   0.41140     -5.103923
   0.40263     -5.114963
   0.39386     -5.139567
   0.38509     -5.164232
   0.37632     -5.187592
   0.36755     -5.208488
   0.35878     -5.226263
   0.35001     -5.241575
   0.34124     -5.257151
   0.33247     -5.276993
   0.32370     -5.303293
   0.31493     -5.335009
   0.30616     -5.370128
   0.29739     -5.406782
   0.28862     -5.437129
   0.28862     -5.437129
   0.27343     -5.428800
   0.25824     -5.407057
   0.24305     -5.377462
   0.22785     -5.343938
   0.21266     -5.309099
   0.19747     -5.275396
   0.18228     -5.251574
   0.16709     -5.293732
   0.15190     -5.323873
   0.13671     -5.334847
   0.12152     -5.327332
   0.10633     -5.307950
   0.09114     -5.316387
   0.07595     -5.323651
   0.06076     -5.329613
   0.04557     -5.334241
   0.03038     -5.337570
   0.01519     -5.339558
   0.00000     -5.340222
 
# Band-Index   51
   0.00000     -5.145946
   0.01519     -5.152541
   0.03038     -5.170295
   0.04557     -5.195169
   0.06076     -5.223693
   0.07595     -5.253373
   0.09114     -5.282201
   0.10633     -5.307828
   0.12152     -5.297994
   0.13671     -5.286914
   0.15190     -5.274611
   0.16709     -5.261139
   0.18228     -5.246561
   0.19747     -5.230990
   0.21266     -5.214609
   0.22785     -5.197730
   0.24305     -5.180942
   0.25824     -5.165439
   0.27343     -5.166117
   0.28862     -5.173294
   0.28862     -5.173294
   0.29739     -5.173994
   0.30616     -5.175637
   0.31493     -5.176862
   0.32370     -5.175378
   0.33247     -5.168118
   0.34124     -5.152801
   0.35001     -5.137479
   0.35878     -5.134013
   0.36755     -5.130091
   0.37632     -5.125719
   0.38509     -5.120898
   0.39386     -5.115649
   0.40263     -5.109981
   0.41140     -5.092072
   0.42017     -5.073393
   0.42894     -5.062761
   0.43771     -5.063012
   0.44648     -5.071720
   0.45525     -5.075786
   0.45525     -5.075786
   0.47279     -5.086410
   0.49033     -5.106371
   0.50787     -5.128628
   0.52541     -5.165177
   0.54295     -5.207236
   0.56049     -5.226931
   0.57803     -5.236421
   0.59557     -5.236528
   0.61311     -5.253053
   0.63065     -5.263957
   0.64819     -5.260769
   0.66573     -5.286733
   0.68327     -5.299261
   0.70081     -5.278227
   0.71835     -5.243549
   0.73589     -5.208572
   0.75343     -5.177476
   0.77097     -5.154656
   0.78851     -5.145946
 
# Band-Index   52
   0.78851     -4.954728
   0.77097     -4.954815
   0.75343     -4.955213
   0.73589     -4.956777
   0.71835     -4.965373
   0.70081     -4.997462
   0.68327     -5.046901
   0.66573     -5.103983
   0.64819     -5.174563
   0.63065     -5.236198
   0.61311     -5.232110
   0.59557     -5.235235
   0.57803     -5.216002
   0.56049     -5.195464
   0.54295     -5.173823
   0.52541     -5.151381
   0.50787     -5.102138
   0.49033     -5.045639
   0.47279     -5.040634
   0.45525     -5.056545
   0.45525     -5.056545
   0.44648     -5.048043
   0.43771     -5.043223
   0.42894     -5.038380
   0.42017     -5.034312
   0.41140     -5.031231
   0.40263     -5.029118
   0.39386     -5.027857
   0.38509     -5.027283
   0.37632     -5.048651
   0.36755     -5.075799
   0.35878     -5.103662
   0.35001     -5.130264
   0.34124     -5.140487
   0.33247     -5.143030
   0.32370     -5.145107
   0.31493     -5.146736
   0.30616     -5.147902
   0.29739     -5.148600
   0.28862     -5.148832
   0.28862     -5.148832
   0.27343     -5.153525
   0.25824     -5.148370
   0.24305     -5.130824
   0.22785     -5.132272
   0.21266     -5.161743
   0.19747     -5.205257
   0.18228     -5.246076
   0.16709     -5.224964
   0.15190     -5.211700
   0.13671     -5.194950
   0.12152     -5.159507
   0.10633     -5.108150
   0.09114     -5.054702
   0.07595     -5.009421
   0.06076     -4.978476
   0.04557     -4.962414
   0.03038     -4.956360
   0.01519     -4.954872
   0.00000     -4.954728
 
# Band-Index   53
   0.00000     -4.954714
   0.01519     -4.949759
   0.03038     -4.936657
   0.04557     -4.918714
   0.06076     -4.898413
   0.07595     -4.877279
   0.09114     -4.865002
   0.10633     -4.903944
   0.12152     -4.946055
   0.13671     -4.985134
   0.15190     -5.015186
   0.16709     -5.030370
   0.18228     -5.028672
   0.19747     -5.014620
   0.21266     -4.994781
   0.22785     -4.994412
   0.24305     -4.988779
   0.25824     -5.010643
   0.27343     -5.026353
   0.28862     -5.032334
   0.28862     -5.032334
   0.29739     -5.032246
   0.30616     -5.031987
   0.31493     -5.031565
   0.32370     -5.031002
   0.33247     -5.030341
   0.34124     -5.029606
   0.35001     -5.028849
   0.35878     -5.028139
   0.36755     -5.027566
   0.37632     -5.027239
   0.38509     -5.024041
   0.39386     -5.004511
   0.40263     -4.993396
   0.41140     -4.991408
   0.42017     -5.000609
   0.42894     -5.016297
   0.43771     -5.032081
   0.44648     -5.046949
   0.45525     -5.050496
   0.45525     -5.050496
   0.47279     -5.020618
   0.49033     -5.021986
   0.50787     -5.000301
   0.52541     -4.976412
   0.54295     -4.954542
   0.56049     -4.994133
   0.57803     -5.035999
   0.59557     -5.076437
   0.61311     -5.108170
   0.63065     -5.114734
   0.64819     -5.083316
   0.66573     -5.018074
   0.68327     -4.954208
   0.70081     -4.941663
   0.71835     -4.932458
   0.73589     -4.924686
   0.75343     -4.934084
   0.77097     -4.948337
   0.78851     -4.954714
 
# Band-Index   54
   0.78851     -4.697667
   0.77097     -4.711933
   0.75343     -4.743992
   0.73589     -4.772943
   0.71835     -4.778443
   0.70081     -4.824466
   0.68327     -4.904645
   0.66573     -4.928127
   0.64819     -4.929126
   0.63065     -4.928159
   0.61311     -4.926972
   0.59557     -4.925642
   0.57803     -4.923766
   0.56049     -4.922798
   0.54295     -4.950556
   0.52541     -4.924993
   0.50787     -4.916555
   0.49033     -4.937546
   0.47279     -4.978440
   0.45525     -4.974172
   0.45525     -4.974172
   0.44648     -4.977158
   0.43771     -4.983895
   0.42894     -4.989169
   0.42017     -4.989388
   0.41140     -4.981167
   0.40263     -4.965476
   0.39386     -4.949192
   0.38509     -4.934080
   0.37632     -4.930456
   0.36755     -4.926062
   0.35878     -4.921504
   0.35001     -4.917194
   0.34124     -4.913369
   0.33247     -4.910346
   0.32370     -4.909969
   0.31493     -4.917344
   0.30616     -4.925711
   0.29739     -4.931355
   0.28862     -4.933324
   0.28862     -4.933324
   0.27343     -4.935830
   0.25824     -4.950377
   0.24305     -4.982822
   0.22785     -4.974281
   0.21266     -4.976779
   0.19747     -4.944250
   0.18228     -4.907659
   0.16709     -4.872434
   0.15190     -4.843487
   0.13671     -4.826935
   0.12152     -4.826461
   0.10633     -4.838379
   0.09114     -4.856605
   0.07595     -4.832768
   0.06076     -4.802752
   0.04557     -4.769743
   0.03038     -4.735928
   0.01519     -4.708635
   0.00000     -4.697667
 
# Band-Index   55
   0.00000     -4.697631
   0.01519     -4.693805
   0.03038     -4.682937
   0.04557     -4.667005
   0.06076     -4.649698
   0.07595     -4.674353
   0.09114     -4.708429
   0.10633     -4.725093
   0.12152     -4.730941
   0.13671     -4.768181
   0.15190     -4.804252
   0.16709     -4.839073
   0.18228     -4.872544
   0.19747     -4.904522
   0.21266     -4.934820
   0.22785     -4.963113
   0.24305     -4.956531
   0.25824     -4.943514
   0.27343     -4.916538
   0.28862     -4.900474
   0.28862     -4.900474
   0.29739     -4.900774
   0.30616     -4.901609
   0.31493     -4.902676
   0.32370     -4.901254
   0.33247     -4.892068
   0.34124     -4.883159
   0.35001     -4.881714
   0.35878     -4.889639
   0.36755     -4.902477
   0.37632     -4.917287
   0.38509     -4.932709
   0.39386     -4.934127
   0.40263     -4.928823
   0.41140     -4.918038
   0.42017     -4.906345
   0.42894     -4.898013
   0.43771     -4.894750
   0.44648     -4.895082
   0.45525     -4.895785
   0.45525     -4.895785
   0.47279     -4.892837
   0.49033     -4.886957
   0.50787     -4.877029
   0.52541     -4.901376
   0.54295     -4.915180
   0.56049     -4.920681
   0.57803     -4.893190
   0.59557     -4.861739
   0.61311     -4.828474
   0.63065     -4.793407
   0.64819     -4.756554
   0.66573     -4.717929
   0.68327     -4.722424
   0.70081     -4.753518
   0.71835     -4.736352
   0.73589     -4.682976
   0.75343     -4.681241
   0.77097     -4.692678
   0.78851     -4.697631
 
# Band-Index   56
   0.78851     -4.534692
   0.77097     -4.534939
   0.75343     -4.550993
   0.73589     -4.583678
   0.71835     -4.591713
   0.70081     -4.635484
   0.68327     -4.677566
   0.66573     -4.691047
   0.64819     -4.667199
   0.63065     -4.669724
   0.61311     -4.698067
   0.59557     -4.725023
   0.57803     -4.750412
   0.56049     -4.774029
   0.54295     -4.795653
   0.52541     -4.814964
   0.50787     -4.833476
   0.49033     -4.844731
   0.47279     -4.853616
   0.45525     -4.856907
   0.45525     -4.856907
   0.44648     -4.855989
   0.43771     -4.853148
   0.42894     -4.848280
   0.42017     -4.841364
   0.41140     -4.832466
   0.40263     -4.821732
   0.39386     -4.809361
   0.38509     -4.795555
   0.37632     -4.788858
   0.36755     -4.805374
   0.35878     -4.819953
   0.35001     -4.829438
   0.34124     -4.829056
   0.33247     -4.820176
   0.32370     -4.807889
   0.31493     -4.794783
   0.30616     -4.782195
   0.29739     -4.771825
   0.28862     -4.767308
   0.28862     -4.767308
   0.27343     -4.751604
   0.25824     -4.733969
   0.24305     -4.739974
   0.22785     -4.743046
   0.21266     -4.742767
   0.19747     -4.740063
   0.18228     -4.736395
   0.16709     -4.733174
   0.15190     -4.731365
   0.13671     -4.730936
   0.12152     -4.730235
   0.10633     -4.692602
   0.09114     -4.653247
   0.07595     -4.637028
   0.06076     -4.626517
   0.04557     -4.577492
   0.03038     -4.544286
   0.01519     -4.534552
   0.00000     -4.534692
 
# Band-Index   57
   0.00000     -4.406549
   0.01519     -4.445079
   0.03038     -4.487500
   0.04557     -4.529905
   0.06076     -4.571783
   0.07595     -4.612928
   0.09114     -4.635773
   0.10633     -4.646708
   0.12152     -4.661837
   0.13671     -4.670351
   0.15190     -4.665938
   0.16709     -4.651189
   0.18228     -4.632398
   0.19747     -4.617246
   0.21266     -4.619302
   0.22785     -4.644092
   0.24305     -4.679640
   0.25824     -4.717714
   0.27343     -4.727607
   0.28862     -4.724779
   0.28862     -4.724779
   0.29739     -4.720659
   0.30616     -4.711465
   0.31493     -4.700843
   0.32370     -4.690471
   0.33247     -4.694988
   0.34124     -4.712669
   0.35001     -4.730365
   0.35878     -4.747719
   0.36755     -4.764522
   0.37632     -4.780537
   0.38509     -4.771753
   0.39386     -4.755733
   0.40263     -4.761775
   0.41140     -4.775890
   0.42017     -4.787004
   0.42894     -4.793387
   0.43771     -4.794623
   0.44648     -4.792713
   0.45525     -4.791273
   0.45525     -4.791273
   0.47279     -4.801227
   0.49033     -4.827229
   0.50787     -4.831542
   0.52541     -4.780516
   0.54295     -4.721009
   0.56049     -4.664561
   0.57803     -4.624460
   0.59557     -4.632156
   0.61311     -4.641977
   0.63065     -4.652343
   0.64819     -4.640171
   0.66573     -4.609605
   0.68327     -4.578262
   0.70081     -4.565338
   0.71835     -4.583149
   0.73589     -4.546285
   0.75343     -4.499367
   0.77097     -4.451351
   0.78851     -4.406549
 
# Band-Index   58
   0.78851     -4.406493
   0.77097     -4.423128
   0.75343     -4.451603
   0.73589     -4.482524
   0.71835     -4.514352
   0.70081     -4.546402
   0.68327     -4.556101
   0.66573     -4.551582
   0.64819     -4.542175
   0.63065     -4.532695
   0.61311     -4.539853
   0.59557     -4.568421
   0.57803     -4.608384
   0.56049     -4.610317
   0.54295     -4.607414
   0.52541     -4.616370
   0.50787     -4.637511
   0.49033     -4.660638
   0.47279     -4.672147
   0.45525     -4.669660
   0.45525     -4.669660
   0.44648     -4.670746
   0.43771     -4.676403
   0.42894     -4.688301
   0.42017     -4.703062
   0.41140     -4.719099
   0.40263     -4.735529
   0.39386     -4.742275
   0.38509     -4.726151
   0.37632     -4.708760
   0.36755     -4.692434
   0.35878     -4.679459
   0.35001     -4.673300
   0.34124     -4.674880
   0.33247     -4.681384
   0.32370     -4.677772
   0.31493     -4.661746
   0.30616     -4.648055
   0.29739     -4.638459
   0.28862     -4.634942
   0.28862     -4.634942
   0.27343     -4.634252
   0.25824     -4.632199
   0.24305     -4.628793
   0.22785     -4.624007
   0.21266     -4.617857
   0.19747     -4.610344
   0.18228     -4.601466
   0.16709     -4.591230
   0.15190     -4.579643
   0.13671     -4.566711
   0.12152     -4.552437
   0.10633     -4.536829
   0.09114     -4.519913
   0.07595     -4.501698
   0.06076     -4.482257
   0.04557     -4.461676
   0.03038     -4.440242
   0.01519     -4.419158
   0.00000     -4.406493
 
# Band-Index   59
   0.00000     -4.404200
   0.01519     -4.390210
   0.03038     -4.407587
   0.04557     -4.425834
   0.06076     -4.446845
   0.07595     -4.461919
   0.09114     -4.464554
   0.10633     -4.454681
   0.12152     -4.452597
   0.13671     -4.453666
   0.15190     -4.454008
   0.16709     -4.470976
   0.18228     -4.497350
   0.19747     -4.521338
   0.21266     -4.530078
   0.22785     -4.518482
   0.24305     -4.527645
   0.25824     -4.547161
   0.27343     -4.561717
   0.28862     -4.567238
   0.28862     -4.567238
   0.29739     -4.569030
   0.30616     -4.574252
   0.31493     -4.582465
   0.32370     -4.593069
   0.33247     -4.605261
   0.34124     -4.617781
   0.35001     -4.628290
   0.35878     -4.633948
   0.36755     -4.635594
   0.37632     -4.636408
   0.38509     -4.638096
   0.39386     -4.641090
   0.40263     -4.645240
   0.41140     -4.650127
   0.42017     -4.655190
   0.42894     -4.659659
   0.43771     -4.662269
   0.44648     -4.661128
   0.45525     -4.660131
   0.45525     -4.660131
   0.47279     -4.652030
   0.49033     -4.631455
   0.50787     -4.606858
   0.52541     -4.580562
   0.54295     -4.552552
   0.56049     -4.525269
   0.57803     -4.500618
   0.59557     -4.478668
   0.61311     -4.458845
   0.63065     -4.440485
   0.64819     -4.423775
   0.66573     -4.430219
   0.68327     -4.459073
   0.70081     -4.476454
   0.71835     -4.473179
   0.73589     -4.456120
   0.75343     -4.428112
   0.77097     -4.395344
   0.78851     -4.404200
 
# Band-Index   60
   0.78851     -4.384647
   0.77097     -4.388069
   0.75343     -4.390027
   0.73589     -4.387092
   0.71835     -4.385540
   0.70081     -4.389098
   0.68327     -4.397265
   0.66573     -4.408835
   0.64819     -4.406623
   0.63065     -4.395062
   0.61311     -4.387492
   0.59557     -4.416479
   0.57803     -4.445555
   0.56049     -4.472286
   0.54295     -4.494580
   0.52541     -4.512935
   0.50787     -4.532750
   0.49033     -4.556978
   0.47279     -4.582409
   0.45525     -4.597591
   0.45525     -4.597591
   0.44648     -4.591316
   0.43771     -4.574043
   0.42894     -4.551256
   0.42017     -4.527748
   0.41140     -4.507323
   0.40263     -4.493082
   0.39386     -4.485628
   0.38509     -4.482652
   0.37632     -4.481383
   0.36755     -4.480049
   0.35878     -4.477846
   0.35001     -4.474614
   0.34124     -4.470632
   0.33247     -4.466451
   0.32370     -4.462703
   0.31493     -4.459918
   0.30616     -4.469935
   0.29739     -4.481025
   0.28862     -4.485049
   0.28862     -4.485049
   0.27343     -4.484545
   0.25824     -4.483050
   0.24305     -4.498755
   0.22785     -4.506746
   0.21266     -4.487271
   0.19747     -4.471442
   0.18228     -4.461488
   0.16709     -4.455558
   0.15190     -4.448995
   0.13671     -4.439316
   0.12152     -4.441512
   0.10633     -4.449963
   0.09114     -4.445869
   0.07595     -4.440736
   0.06076     -4.434513
   0.04557     -4.425046
   0.03038     -4.405261
   0.01519     -4.389710
   0.00000     -4.384647
 
# Band-Index   61
   0.00000     -4.384640
   0.01519     -4.387862
   0.03038     -4.388744
   0.04557     -4.393073
   0.06076     -4.399112
   0.07595     -4.406304
   0.09114     -4.414254
   0.10633     -4.422589
   0.12152     -4.431028
   0.13671     -4.437608
   0.15190     -4.447256
   0.16709     -4.454690
   0.18228     -4.460821
   0.19747     -4.467549
   0.21266     -4.472787
   0.22785     -4.477148
   0.24305     -4.480583
   0.25824     -4.478834
   0.27343     -4.463420
   0.28862     -4.457344
   0.28862     -4.457344
   0.29739     -4.457528
   0.30616     -4.458264
   0.31493     -4.453754
   0.32370     -4.434209
   0.33247     -4.412436
   0.34124     -4.389129
   0.35001     -4.364714
   0.35878     -4.341920
   0.36755     -4.341247
   0.37632     -4.348153
   0.38509     -4.362622
   0.39386     -4.379398
   0.40263     -4.393522
   0.41140     -4.401706
   0.42017     -4.403919
   0.42894     -4.402434
   0.43771     -4.399580
   0.44648     -4.397061
   0.45525     -4.396050
   0.45525     -4.396050
   0.47279     -4.400337
   0.49033     -4.410142
   0.50787     -4.417763
   0.52541     -4.415245
   0.54295     -4.400374
   0.56049     -4.378268
   0.57803     -4.354629
   0.59557     -4.341203
   0.61311     -4.374181
   0.63065     -4.358472
   0.64819     -4.341617
   0.66573     -4.340578
   0.68327     -4.352350
   0.70081     -4.362341
   0.71835     -4.370544
   0.73589     -4.376989
   0.75343     -4.381819
   0.77097     -4.386046
   0.78851     -4.384640
 
# Band-Index   62
   0.78851     -4.370052
   0.77097     -4.354609
   0.75343     -4.330867
   0.73589     -4.313573
   0.71835     -4.304356
   0.70081     -4.301718
   0.68327     -4.317494
   0.66573     -4.332528
   0.64819     -4.327006
   0.63065     -4.315005
   0.61311     -4.315679
   0.59557     -4.330076
   0.57803     -4.296932
   0.56049     -4.272242
   0.54295     -4.270426
   0.52541     -4.275793
   0.50787     -4.284552
   0.49033     -4.294664
   0.47279     -4.303286
   0.45525     -4.306671
   0.45525     -4.306671
   0.44648     -4.305928
   0.43771     -4.304146
   0.42894     -4.302102
   0.42017     -4.300544
   0.41140     -4.299999
   0.40263     -4.300673
   0.39386     -4.302352
   0.38509     -4.304140
   0.37632     -4.303671
   0.36755     -4.313577
   0.35878     -4.339463
   0.35001     -4.345937
   0.34124     -4.350654
   0.33247     -4.354770
   0.32370     -4.357530
   0.31493     -4.358646
   0.30616     -4.358391
   0.29739     -4.357587
   0.28862     -4.357183
   0.28862     -4.357183
   0.27343     -4.353058
   0.25824     -4.343316
   0.24305     -4.332190
   0.22785     -4.322330
   0.21266     -4.315180
   0.19747     -4.311679
   0.18228     -4.312614
   0.16709     -4.318455
   0.15190     -4.327745
   0.13671     -4.334669
   0.12152     -4.331769
   0.10633     -4.320025
   0.09114     -4.305138
   0.07595     -4.290481
   0.06076     -4.277482
   0.04557     -4.302953
   0.03038     -4.330971
   0.01519     -4.356026
   0.00000     -4.370052
 
# Band-Index   63
   0.00000     -4.369975
   0.01519     -4.348470
   0.03038     -4.311096
   0.04557     -4.296339
   0.06076     -4.273139
   0.07595     -4.244581
   0.09114     -4.235856
   0.10633     -4.240106
   0.12152     -4.249406
   0.13671     -4.259978
   0.15190     -4.269416
   0.16709     -4.275338
   0.18228     -4.275600
   0.19747     -4.269343
   0.21266     -4.257660
   0.22785     -4.242937
   0.24305     -4.227845
   0.25824     -4.220561
   0.27343     -4.222447
   0.28862     -4.223091
   0.28862     -4.223091
   0.29739     -4.224658
   0.30616     -4.228433
   0.31493     -4.233747
   0.32370     -4.240657
   0.33247     -4.249342
   0.34124     -4.259861
   0.35001     -4.272077
   0.35878     -4.285272
   0.36755     -4.297196
   0.37632     -4.287195
   0.38509     -4.260472
   0.39386     -4.233504
   0.40263     -4.206465
   0.41140     -4.179553
   0.42017     -4.153051
   0.42894     -4.127391
   0.43771     -4.103302
   0.44648     -4.082298
   0.45525     -4.070946
   0.45525     -4.070946
   0.47279     -4.095179
   0.49033     -4.125568
   0.50787     -4.154762
   0.52541     -4.182359
   0.54295     -4.208274
   0.56049     -4.232460
   0.57803     -4.257495
   0.59557     -4.275588
   0.61311     -4.294509
   0.63065     -4.311654
   0.64819     -4.314930
   0.66573     -4.297373
   0.68327     -4.289693
   0.70081     -4.293057
   0.71835     -4.285546
   0.73589     -4.307527
   0.75343     -4.317137
   0.77097     -4.341228
   0.78851     -4.369975
 
# Band-Index   64
   0.78851     -4.280233
   0.77097     -4.303753
   0.75343     -4.289829
   0.73589     -4.271117
   0.71835     -4.284195
   0.70081     -4.264862
   0.68327     -4.257204
   0.66573     -4.272441
   0.64819     -4.280548
   0.63065     -4.287450
   0.61311     -4.282902
   0.59557     -4.269597
   0.57803     -4.254904
   0.56049     -4.231235
   0.54295     -4.187359
   0.52541     -4.143446
   0.50787     -4.105230
   0.49033     -4.076799
   0.47279     -4.061180
   0.45525     -4.057160
   0.45525     -4.057160
   0.44648     -4.057679
   0.43771     -4.058579
   0.42894     -4.058869
   0.42017     -4.057645
   0.41140     -4.054153
   0.40263     -4.047840
   0.39386     -4.038508
   0.38509     -4.027677
   0.37632     -4.033435
   0.36755     -4.054432
   0.35878     -4.076764
   0.35001     -4.098951
   0.34124     -4.120512
   0.33247     -4.140995
   0.32370     -4.159880
   0.31493     -4.176506
   0.30616     -4.190050
   0.29739     -4.199431
   0.28862     -4.203004
   0.28862     -4.203004
   0.27343     -4.206104
   0.25824     -4.214864
   0.24305     -4.217625
   0.22785     -4.214024
   0.21266     -4.210408
   0.19747     -4.207609
   0.18228     -4.206329
   0.16709     -4.206638
   0.15190     -4.207696
   0.13671     -4.208326
   0.12152     -4.207916
   0.10633     -4.206508
   0.09114     -4.209146
   0.07595     -4.241837
   0.06076     -4.269339
   0.04557     -4.266781
   0.03038     -4.307001
   0.01519     -4.299814
   0.00000     -4.280233
 
# Band-Index   65
   0.00000     -4.252025
   0.01519     -4.253740
   0.03038     -4.258775
   0.04557     -4.263129
   0.06076     -4.218806
   0.07595     -4.201978
   0.09114     -4.204427
   0.10633     -4.175112
   0.12152     -4.139774
   0.13671     -4.103154
   0.15190     -4.065270
   0.16709     -4.032246
   0.18228     -4.004713
   0.19747     -3.969277
   0.21266     -3.927966
   0.22785     -3.883373
   0.24305     -3.838409
   0.25824     -3.797204
   0.27343     -3.791541
   0.28862     -3.793268
   0.28862     -3.793268
   0.29739     -3.796707
   0.30616     -3.807559
   0.31493     -3.826143
   0.32370     -3.850756
   0.33247     -3.878569
   0.34124     -3.907234
   0.35001     -3.935147
   0.35878     -3.961175
   0.36755     -3.984354
   0.37632     -4.002997
   0.38509     -4.003074
   0.39386     -3.983359
   0.40263     -3.962266
   0.41140     -3.970506
   0.42017     -3.989072
   0.42894     -4.007122
   0.43771     -4.024504
   0.44648     -4.040548
   0.45525     -4.049933
   0.45525     -4.049933
   0.47279     -4.035995
   0.49033     -4.036194
   0.50787     -4.049147
   0.52541     -4.067486
   0.54295     -4.087764
   0.56049     -4.108521
   0.57803     -4.129130
   0.59557     -4.149317
   0.61311     -4.169014
   0.63065     -4.188263
   0.64819     -4.207200
   0.66573     -4.226067
   0.68327     -4.245160
   0.70081     -4.237742
   0.71835     -4.220516
   0.73589     -4.234964
   0.75343     -4.260886
   0.77097     -4.254313
   0.78851     -4.252025
 
# Band-Index   66
   0.78851     -4.188734
   0.77097     -4.191203
   0.75343     -4.197513
   0.73589     -4.207111
   0.71835     -4.178121
   0.70081     -4.151556
   0.68327     -4.140877
   0.66573     -4.128380
   0.64819     -4.112882
   0.63065     -4.092248
   0.61311     -4.064518
   0.59557     -4.029871
   0.57803     -3.992313
   0.56049     -3.960448
   0.54295     -3.938745
   0.52541     -3.922917
   0.50787     -3.910091
   0.49033     -3.898341
   0.47279     -3.885504
   0.45525     -3.875611
   0.45525     -3.875611
   0.44648     -3.880058
   0.43771     -3.890996
   0.42894     -3.905623
   0.42017     -3.922802
   0.41140     -3.941871
   0.40263     -3.951469
   0.39386     -3.932004
   0.38509     -3.912123
   0.37632     -3.891815
   0.36755     -3.871115
   0.35878     -3.850017
   0.35001     -3.828539
   0.34124     -3.806690
   0.33247     -3.784488
   0.32370     -3.766111
   0.31493     -3.762059
   0.30616     -3.758504
   0.29739     -3.756090
   0.28862     -3.755264
   0.28862     -3.755264
   0.27343     -3.766677
   0.25824     -3.787420
   0.24305     -3.812348
   0.22785     -3.857438
   0.21266     -3.901396
   0.19747     -3.944183
   0.18228     -3.985767
   0.16709     -4.026135
   0.15190     -4.051251
   0.13671     -4.062982
   0.12152     -4.069711
   0.10633     -4.101810
   0.09114     -4.142547
   0.07595     -4.174481
   0.06076     -4.199369
   0.04557     -4.196614
   0.03038     -4.193596
   0.01519     -4.190417
   0.00000     -4.188734
 
# Band-Index   67
   0.00000     -4.188689
   0.01519     -4.178496
   0.03038     -4.175651
   0.04557     -4.177034
   0.06076     -4.177524
   0.07595     -4.169420
   0.09114     -4.130373
   0.10633     -4.086607
   0.12152     -4.055887
   0.13671     -4.008535
   0.15190     -3.961494
   0.16709     -3.916037
   0.18228     -3.874435
   0.19747     -3.835773
   0.21266     -3.806090
   0.22785     -3.788715
   0.24305     -3.784400
   0.25824     -3.766203
   0.27343     -3.719361
   0.28862     -3.681041
   0.28862     -3.681041
   0.29739     -3.694484
   0.30616     -3.716403
   0.31493     -3.739203
   0.32370     -3.761965
   0.33247     -3.770296
   0.34124     -3.774546
   0.35001     -3.778906
   0.35878     -3.783446
   0.36755     -3.788223
   0.37632     -3.793339
   0.38509     -3.798846
   0.39386     -3.804841
   0.40263     -3.818416
   0.41140     -3.831902
   0.42017     -3.844419
   0.42894     -3.855595
   0.43771     -3.864855
   0.44648     -3.871329
   0.45525     -3.873807
   0.45525     -3.873807
   0.47279     -3.861525
   0.49033     -3.838896
   0.50787     -3.836817
   0.52541     -3.850005
   0.54295     -3.880943
   0.56049     -3.917359
   0.57803     -3.946839
   0.59557     -3.968684
   0.61311     -3.987603
   0.63065     -4.005207
   0.64819     -4.021540
   0.66573     -4.036170
   0.68327     -4.059399
   0.70081     -4.119569
   0.71835     -4.160455
   0.73589     -4.167185
   0.75343     -4.171806
   0.77097     -4.176932
   0.78851     -4.188689
 
# Band-Index   68
   0.78851     -4.144927
   0.77097     -4.136388
   0.75343     -4.115581
   0.73589     -4.089780
   0.71835     -4.070645
   0.70081     -4.059370
   0.68327     -4.048681
   0.66573     -3.997689
   0.64819     -3.934465
   0.63065     -3.869776
   0.61311     -3.803652
   0.59557     -3.746017
   0.57803     -3.729893
   0.56049     -3.720884
   0.54295     -3.726797
   0.52541     -3.738865
   0.50787     -3.773631
   0.49033     -3.825089
   0.47279     -3.846449
   0.45525     -3.853521
   0.45525     -3.853521
   0.44648     -3.850135
   0.43771     -3.842776
   0.42894     -3.834469
   0.42017     -3.826261
   0.41140     -3.818524
   0.40263     -3.811388
   0.39386     -3.804241
   0.38509     -3.789575
   0.37632     -3.774562
   0.36755     -3.759377
   0.35878     -3.744168
   0.35001     -3.729123
   0.34124     -3.714467
   0.33247     -3.700540
   0.32370     -3.699273
   0.31493     -3.693973
   0.30616     -3.682394
   0.29739     -3.667345
   0.28862     -3.664292
   0.28862     -3.664292
   0.27343     -3.680063
   0.25824     -3.703584
   0.24305     -3.726535
   0.22785     -3.754565
   0.21266     -3.793372
   0.19747     -3.833498
   0.18228     -3.873486
   0.16709     -3.915941
   0.15190     -3.957927
   0.13671     -4.000363
   0.12152     -4.043257
   0.10633     -4.073652
   0.09114     -4.076655
   0.07595     -4.080635
   0.06076     -4.088649
   0.04557     -4.103672
   0.03038     -4.122461
   0.01519     -4.138354
   0.00000     -4.144927
 
# Band-Index   69
   0.00000     -4.144883
   0.01519     -4.120204
   0.03038     -4.058034
   0.04557     -4.052611
   0.06076     -4.040253
   0.07595     -4.019076
   0.09114     -3.992795
   0.10633     -3.964571
   0.12152     -3.935834
   0.13671     -3.907224
   0.15190     -3.879057
   0.16709     -3.851538
   0.18228     -3.824782
   0.19747     -3.798860
   0.21266     -3.773842
   0.22785     -3.749769
   0.24305     -3.718109
   0.25824     -3.686081
   0.27343     -3.662518
   0.28862     -3.657564
   0.28862     -3.657564
   0.29739     -3.661432
   0.30616     -3.667463
   0.31493     -3.676398
   0.32370     -3.687632
   0.33247     -3.700503
   0.34124     -3.699711
   0.35001     -3.698152
   0.35878     -3.697285
   0.36755     -3.698528
   0.37632     -3.702108
   0.38509     -3.707142
   0.39386     -3.712883
   0.40263     -3.718833
   0.41140     -3.724588
   0.42017     -3.729808
   0.42894     -3.734143
   0.43771     -3.737305
   0.44648     -3.739147
   0.45525     -3.739721
   0.45525     -3.739721
   0.47279     -3.738378
   0.49033     -3.737458
   0.50787     -3.739865
   0.52541     -3.715626
   0.54295     -3.707435
   0.56049     -3.698677
   0.57803     -3.676296
   0.59557     -3.736155
   0.61311     -3.769938
   0.63065     -3.802213
   0.64819     -3.841992
   0.66573     -3.887203
   0.68327     -3.934966
   0.70081     -3.981828
   0.71835     -4.022599
   0.73589     -4.047744
   0.75343     -4.056768
   0.77097     -4.112183
   0.78851     -4.144883
 
# Band-Index   70
   0.78851     -4.060430
   0.77097     -4.059705
   0.75343     -4.036770
   0.73589     -3.953399
   0.71835     -3.871327
   0.70081     -3.826237
   0.68327     -3.790356
   0.66573     -3.750543
   0.64819     -3.707836
   0.63065     -3.663610
   0.61311     -3.637945
   0.59557     -3.654430
   0.57803     -3.667357
   0.56049     -3.605081
   0.54295     -3.656476
   0.52541     -3.702279
   0.50787     -3.690091
   0.49033     -3.667186
   0.47279     -3.641347
   0.45525     -3.629166
   0.45525     -3.629166
   0.44648     -3.631608
   0.43771     -3.636855
   0.42894     -3.642869
   0.42017     -3.648878
   0.41140     -3.654686
   0.40263     -3.660252
   0.39386     -3.665515
   0.38509     -3.670353
   0.37632     -3.674439
   0.36755     -3.677109
   0.35878     -3.677486
   0.35001     -3.675662
   0.34124     -3.672818
   0.33247     -3.669840
   0.32370     -3.667136
   0.31493     -3.664844
   0.30616     -3.662770
   0.29739     -3.657011
   0.28862     -3.653463
   0.28862     -3.653463
   0.27343     -3.643421
   0.25824     -3.653656
   0.24305     -3.666828
   0.22785     -3.676714
   0.21266     -3.677785
   0.19747     -3.671270
   0.18228     -3.662250
   0.16709     -3.655311
   0.15190     -3.668024
   0.13671     -3.710043
   0.12152     -3.749497
   0.10633     -3.785822
   0.09114     -3.818529
   0.07595     -3.847181
   0.06076     -3.913022
   0.04557     -3.985852
   0.03038     -4.057877
   0.01519     -4.059888
   0.00000     -4.060430
 
# Band-Index   71
   0.00000     -3.916357
   0.01519     -3.913461
   0.03038     -3.904844
   0.04557     -3.890715
   0.06076     -3.871372
   0.07595     -3.843412
   0.09114     -3.780291
   0.10633     -3.727261
   0.12152     -3.687949
   0.13671     -3.664173
   0.15190     -3.654543
   0.16709     -3.624136
   0.18228     -3.579359
   0.19747     -3.535184
   0.21266     -3.528289
   0.22785     -3.547024
   0.24305     -3.566307
   0.25824     -3.586665
   0.27343     -3.618140
   0.28862     -3.639650
   0.28862     -3.639650
   0.29739     -3.637794
   0.30616     -3.614499
   0.31493     -3.589799
   0.32370     -3.564448
   0.33247     -3.538685
   0.34124     -3.539866
   0.35001     -3.542015
   0.35878     -3.544644
   0.36755     -3.547492
   0.37632     -3.550418
   0.38509     -3.553318
   0.39386     -3.556162
   0.40263     -3.558995
   0.41140     -3.561948
   0.42017     -3.565260
   0.42894     -3.569153
   0.43771     -3.573650
   0.44648     -3.578094
   0.45525     -3.580332
   0.45525     -3.580332
   0.47279     -3.567992
   0.49033     -3.537936
   0.50787     -3.499542
   0.52541     -3.457235
   0.54295     -3.525400
   0.56049     -3.594804
   0.57803     -3.572465
   0.59557     -3.584006
   0.61311     -3.620270
   0.63065     -3.631992
   0.64819     -3.642904
   0.66573     -3.675182
   0.68327     -3.727532
   0.70081     -3.794662
   0.71835     -3.857220
   0.73589     -3.882418
   0.75343     -3.901054
   0.77097     -3.912499
   0.78851     -3.916357
 
# Band-Index   72
   0.78851     -3.363108
   0.77097     -3.364580
   0.75343     -3.369007
   0.73589     -3.376072
   0.71835     -3.385229
   0.70081     -3.395451
   0.68327     -3.405047
   0.66573     -3.411522
   0.64819     -3.411965
   0.63065     -3.404587
   0.61311     -3.389909
   0.59557     -3.376447
   0.57803     -3.406815
   0.56049     -3.392777
   0.54295     -3.414506
   0.52541     -3.452796
   0.50787     -3.378993
   0.49033     -3.343819
   0.47279     -3.359065
   0.45525     -3.364916
   0.45525     -3.364916
   0.44648     -3.363345
   0.43771     -3.358660
   0.42894     -3.351126
   0.42017     -3.341238
   0.41140     -3.329617
   0.40263     -3.319617
   0.39386     -3.347938
   0.38509     -3.376059
   0.37632     -3.403930
   0.36755     -3.431513
   0.35878     -3.458795
   0.35001     -3.485752
   0.34124     -3.512364
   0.33247     -3.538608
   0.32370     -3.539816
   0.31493     -3.547860
   0.30616     -3.570038
   0.29739     -3.600191
   0.28862     -3.624051
   0.28862     -3.624051
   0.27343     -3.608779
   0.25824     -3.567939
   0.24305     -3.516205
   0.22785     -3.463298
   0.21266     -3.494354
   0.19747     -3.509986
   0.18228     -3.492136
   0.16709     -3.474841
   0.15190     -3.458203
   0.13671     -3.442345
   0.12152     -3.427427
   0.10633     -3.413612
   0.09114     -3.401077
   0.07595     -3.390015
   0.06076     -3.380617
   0.04557     -3.373079
   0.03038     -3.367569
   0.01519     -3.364208
   0.00000     -3.363108
 
# Band-Index   73
   0.00000     -3.363079
   0.01519     -3.363722
   0.03038     -3.365465
   0.04557     -3.367926
   0.06076     -3.370329
   0.07595     -3.371366
   0.09114     -3.369019
   0.10633     -3.360492
   0.12152     -3.342989
   0.13671     -3.315625
   0.15190     -3.281178
   0.16709     -3.245317
   0.18228     -3.298238
   0.19747     -3.354270
   0.21266     -3.409303
   0.22785     -3.462039
   0.24305     -3.445807
   0.25824     -3.476962
   0.27343     -3.507216
   0.28862     -3.518524
   0.28862     -3.518524
   0.29739     -3.517750
   0.30616     -3.513959
   0.31493     -3.500393
   0.32370     -3.471949
   0.33247     -3.436378
   0.34124     -3.400670
   0.35001     -3.383035
   0.35878     -3.364539
   0.36755     -3.345398
   0.37632     -3.325777
   0.38509     -3.305798
   0.39386     -3.303696
   0.40263     -3.316901
   0.41140     -3.291160
   0.42017     -3.262684
   0.42894     -3.234433
   0.43771     -3.206891
   0.44648     -3.181246
   0.45525     -3.163593
   0.45525     -3.163593
   0.47279     -3.228540
   0.49033     -3.304132
   0.50787     -3.323739
   0.52541     -3.304786
   0.54295     -3.352996
   0.56049     -3.377218
   0.57803     -3.360815
   0.59557     -3.371631
   0.61311     -3.318418
   0.63065     -3.306908
   0.64819     -3.338776
   0.66573     -3.360155
   0.68327     -3.370699
   0.70081     -3.373669
   0.71835     -3.372419
   0.73589     -3.369397
   0.75343     -3.366222
   0.77097     -3.363935
   0.78851     -3.363079
 
# Band-Index   74
   0.78851     -2.916438
   0.77097     -2.918471
   0.75343     -2.925395
   0.73589     -2.939139
   0.71835     -2.960975
   0.70081     -2.990120
   0.68327     -3.025605
   0.66573     -3.102251
   0.64819     -3.177388
   0.63065     -3.250116
   0.61311     -3.272348
   0.59557     -3.261484
   0.57803     -3.281099
   0.56049     -3.289104
   0.54295     -3.291840
   0.52541     -3.304261
   0.50787     -3.254380
   0.49033     -3.204709
   0.47279     -3.158672
   0.45525     -3.149000
   0.45525     -3.149000
   0.44648     -3.163498
   0.43771     -3.183371
   0.42894     -3.203687
   0.42017     -3.224155
   0.41140     -3.244675
   0.40263     -3.265168
   0.39386     -3.285565
   0.38509     -3.290682
   0.37632     -3.279464
   0.36755     -3.286687
   0.35878     -3.321808
   0.35001     -3.360089
   0.34124     -3.398571
   0.33247     -3.417148
   0.32370     -3.432065
   0.31493     -3.444873
   0.30616     -3.454889
   0.29739     -3.461339
   0.28862     -3.463574
   0.28862     -3.463574
   0.27343     -3.458158
   0.25824     -3.447864
   0.24305     -3.435661
   0.22785     -3.389407
   0.21266     -3.341398
   0.19747     -3.293204
   0.18228     -3.245692
   0.16709     -3.241224
   0.15190     -3.183260
   0.13671     -3.124372
   0.12152     -3.072071
   0.10633     -3.034811
   0.09114     -3.001168
   0.07595     -2.972171
   0.06076     -2.949108
   0.04557     -2.932860
   0.03038     -2.922972
   0.01519     -2.917948
   0.00000     -2.916438
 
# Band-Index   75
   0.00000     -2.794325
   0.01519     -2.798945
   0.03038     -2.810322
   0.04557     -2.823423
   0.06076     -2.834373
   0.07595     -2.880541
   0.09114     -2.942657
   0.10633     -3.004032
   0.12152     -3.064617
   0.13671     -3.112240
   0.15190     -3.154832
   0.16709     -3.199435
   0.18228     -3.214401
   0.19747     -3.193323
   0.21266     -3.214001
   0.22785     -3.239965
   0.24305     -3.247732
   0.25824     -3.235810
   0.27343     -3.216125
   0.28862     -3.206359
   0.28862     -3.206359
   0.29739     -3.206147
   0.30616     -3.205496
   0.31493     -3.209068
   0.32370     -3.214501
   0.33247     -3.221381
   0.34124     -3.229604
   0.35001     -3.238987
   0.35878     -3.249085
   0.36755     -3.257113
   0.37632     -3.238327
   0.38509     -3.202107
   0.39386     -3.174583
   0.40263     -3.168912
   0.41140     -3.162682
   0.42017     -3.155822
   0.42894     -3.148203
   0.43771     -3.139629
   0.44648     -3.130599
   0.45525     -3.140535
   0.45525     -3.140535
   0.47279     -3.124525
   0.49033     -3.101872
   0.50787     -3.080115
   0.52541     -3.073789
   0.54295     -3.101069
   0.56049     -3.126299
   0.57803     -3.159318
   0.59557     -3.188354
   0.61311     -3.179975
   0.63065     -3.143853
   0.64819     -3.103132
   0.66573     -3.062797
   0.68327     -3.024634
   0.70081     -2.947978
   0.71835     -2.869820
   0.73589     -2.832447
   0.75343     -2.815032
   0.77097     -2.800412
   0.78851     -2.794325
 
# Band-Index   76
   0.78851     -2.794261
   0.77097     -2.795884
   0.75343     -2.800024
   0.73589     -2.805007
   0.71835     -2.850898
   0.70081     -2.871633
   0.68327     -2.895678
   0.66573     -2.923084
   0.64819     -2.953192
   0.63065     -2.985098
   0.61311     -3.017461
   0.59557     -3.048115
   0.57803     -3.073017
   0.56049     -3.084076
   0.54295     -3.071026
   0.52541     -3.057547
   0.50787     -3.040045
   0.49033     -3.061101
   0.47279     -3.099428
   0.45525     -3.119194
   0.45525     -3.119194
   0.44648     -3.108075
   0.43771     -3.073549
   0.42894     -3.057933
   0.42017     -3.058715
   0.41140     -3.092733
   0.40263     -3.128340
   0.39386     -3.164964
   0.38509     -3.179742
   0.37632     -3.184416
   0.36755     -3.188619
   0.35878     -3.192366
   0.35001     -3.195659
   0.34124     -3.198508
   0.33247     -3.200913
   0.32370     -3.202876
   0.31493     -3.204407
   0.30616     -3.205147
   0.29739     -3.202780
   0.28862     -3.201988
   0.28862     -3.201988
   0.27343     -3.199975
   0.25824     -3.194649
   0.24305     -3.188019
   0.22785     -3.183086
   0.21266     -3.183588
   0.19747     -3.177104
   0.18228     -3.134191
   0.16709     -3.087740
   0.15190     -3.039040
   0.13671     -2.988830
   0.12152     -2.937632
   0.10633     -2.885853
   0.09114     -2.845127
   0.07595     -2.841508
   0.06076     -2.817745
   0.04557     -2.804880
   0.03038     -2.799056
   0.01519     -2.795506
   0.00000     -2.794261
 
# Band-Index   77
   0.00000     -2.672153
   0.01519     -2.666885
   0.03038     -2.690789
   0.04557     -2.754412
   0.06076     -2.812777
   0.07595     -2.822459
   0.09114     -2.833890
   0.10633     -2.846266
   0.12152     -2.857295
   0.13671     -2.867955
   0.15190     -2.875529
   0.16709     -2.877334
   0.18228     -2.869996
   0.19747     -2.850666
   0.21266     -2.833583
   0.22785     -2.831773
   0.24305     -2.885971
   0.25824     -2.935631
   0.27343     -2.973285
   0.28862     -2.988248
   0.28862     -2.988248
   0.29739     -2.988320
   0.30616     -2.988537
   0.31493     -2.988925
   0.32370     -2.989528
   0.33247     -2.990416
   0.34124     -2.991671
   0.35001     -2.993402
   0.35878     -2.995747
   0.36755     -2.998860
   0.37632     -3.002927
   0.38509     -3.008144
   0.39386     -3.014722
   0.40263     -3.022856
   0.41140     -3.032712
   0.42017     -3.044398
   0.42894     -3.031789
   0.43771     -3.070243
   0.44648     -3.088913
   0.45525     -3.099604
   0.45525     -3.099604
   0.47279     -3.062052
   0.49033     -3.008943
   0.50787     -3.022949
   0.52541     -3.044343
   0.54295     -3.033755
   0.56049     -3.008556
   0.57803     -2.981896
   0.59557     -2.953764
   0.61311     -2.924157
   0.63065     -2.893092
   0.64819     -2.860605
   0.66573     -2.826699
   0.68327     -2.800276
   0.70081     -2.806536
   0.71835     -2.807959
   0.73589     -2.791564
   0.75343     -2.713860
   0.77097     -2.665227
   0.78851     -2.672153
 
# Band-Index   78
   0.78851     -2.581167
   0.77097     -2.638135
   0.75343     -2.647990
   0.73589     -2.678612
   0.71835     -2.717240
   0.70081     -2.754927
   0.68327     -2.791456
   0.66573     -2.789765
   0.64819     -2.775662
   0.63065     -2.774095
   0.61311     -2.808496
   0.59557     -2.843053
   0.57803     -2.877885
   0.56049     -2.913142
   0.54295     -2.948984
   0.52541     -2.985552
   0.50787     -3.015646
   0.49033     -3.004105
   0.47279     -2.986325
   0.45525     -2.974541
   0.45525     -2.974541
   0.44648     -2.980734
   0.43771     -2.999848
   0.42894     -3.027148
   0.42017     -2.992406
   0.41140     -2.952706
   0.40263     -2.912756
   0.39386     -2.899422
   0.38509     -2.891679
   0.37632     -2.883911
   0.36755     -2.876147
   0.35878     -2.868449
   0.35001     -2.860905
   0.34124     -2.853643
   0.33247     -2.846853
   0.32370     -2.840741
   0.31493     -2.835572
   0.30616     -2.831616
   0.29739     -2.829126
   0.28862     -2.828274
   0.28862     -2.828274
   0.27343     -2.828496
   0.25824     -2.829164
   0.24305     -2.830278
   0.22785     -2.830321
   0.21266     -2.818963
   0.19747     -2.835665
   0.18228     -2.837923
   0.16709     -2.840239
   0.15190     -2.842467
   0.13671     -2.844420
   0.12152     -2.845820
   0.10633     -2.845410
   0.09114     -2.833524
   0.07595     -2.782207
   0.06076     -2.731427
   0.04557     -2.682537
   0.03038     -2.653266
   0.01519     -2.627885
   0.00000     -2.581167
 
# Band-Index   79
   0.00000     -2.581096
   0.01519     -2.599269
   0.03038     -2.637212
   0.04557     -2.635004
   0.06076     -2.614581
   0.07595     -2.593281
   0.09114     -2.571768
   0.10633     -2.550459
   0.12152     -2.529592
   0.13671     -2.509355
   0.15190     -2.540258
   0.16709     -2.593309
   0.18228     -2.651522
   0.19747     -2.711554
   0.21266     -2.771617
   0.22785     -2.777379
   0.24305     -2.729696
   0.25824     -2.679941
   0.27343     -2.633900
   0.28862     -2.610057
   0.28862     -2.610057
   0.29739     -2.609171
   0.30616     -2.606646
   0.31493     -2.602917
   0.32370     -2.598874
   0.33247     -2.596408
   0.34124     -2.627975
   0.35001     -2.669100
   0.35878     -2.710106
   0.36755     -2.750968
   0.37632     -2.791679
   0.38509     -2.832224
   0.39386     -2.872589
   0.40263     -2.907106
   0.41140     -2.914697
   0.42017     -2.922134
   0.42894     -2.929212
   0.43771     -2.935337
   0.44648     -2.938908
   0.45525     -2.938980
   0.45525     -2.938980
   0.47279     -2.951962
   0.49033     -2.983771
   0.50787     -2.941878
   0.52541     -2.877695
   0.54295     -2.812216
   0.56049     -2.745730
   0.57803     -2.695908
   0.59557     -2.717279
   0.61311     -2.738705
   0.63065     -2.758471
   0.64819     -2.739793
   0.66573     -2.705580
   0.68327     -2.671594
   0.70081     -2.638110
   0.71835     -2.605712
   0.73589     -2.625876
   0.75343     -2.639635
   0.77097     -2.602512
   0.78851     -2.581096
 
# Band-Index   80
   0.78851     -2.544385
   0.77097     -2.532318
   0.75343     -2.549563
   0.73589     -2.575491
   0.71835     -2.602112
   0.70081     -2.578348
   0.68327     -2.555589
   0.66573     -2.534580
   0.64819     -2.516087
   0.63065     -2.500999
   0.61311     -2.541842
   0.59557     -2.610396
   0.57803     -2.678409
   0.56049     -2.678153
   0.54295     -2.670563
   0.52541     -2.680961
   0.50787     -2.710602
   0.49033     -2.752545
   0.47279     -2.795601
   0.45525     -2.816877
   0.45525     -2.816877
   0.44648     -2.811560
   0.43771     -2.798334
   0.42894     -2.780886
   0.42017     -2.761411
   0.41140     -2.741033
   0.40263     -2.720356
   0.39386     -2.699743
   0.38509     -2.679450
   0.37632     -2.659738
   0.36755     -2.640908
   0.35878     -2.623513
   0.35001     -2.608720
   0.34124     -2.598969
   0.33247     -2.586743
   0.32370     -2.545421
   0.31493     -2.523618
   0.30616     -2.513532
   0.29739     -2.506483
   0.28862     -2.503921
   0.28862     -2.503921
   0.27343     -2.480700
   0.25824     -2.436263
   0.24305     -2.402927
   0.22785     -2.414471
   0.21266     -2.427772
   0.19747     -2.440588
   0.18228     -2.454401
   0.16709     -2.471562
   0.15190     -2.489951
   0.13671     -2.498570
   0.12152     -2.492614
   0.10633     -2.500232
   0.09114     -2.506872
   0.07595     -2.512517
   0.06076     -2.517180
   0.04557     -2.520901
   0.03038     -2.523838
   0.01519     -2.527380
   0.00000     -2.544385
 
# Band-Index   81
   0.00000     -2.514757
   0.01519     -2.504306
   0.03038     -2.488140
   0.04557     -2.475681
   0.06076     -2.467417
   0.07595     -2.462577
   0.09114     -2.460933
   0.10633     -2.463559
   0.12152     -2.473964
   0.13671     -2.484027
   0.15190     -2.474491
   0.16709     -2.464044
   0.18228     -2.452717
   0.19747     -2.438675
   0.21266     -2.424678
   0.22785     -2.412660
   0.24305     -2.401066
   0.25824     -2.395743
   0.27343     -2.391328
   0.28862     -2.389846
   0.28862     -2.389846
   0.29739     -2.421460
   0.30616     -2.462671
   0.31493     -2.504047
   0.32370     -2.535000
   0.33247     -2.545337
   0.34124     -2.550999
   0.35001     -2.549851
   0.35878     -2.544092
   0.36755     -2.536274
   0.37632     -2.527698
   0.38509     -2.522613
   0.39386     -2.542258
   0.40263     -2.559750
   0.41140     -2.574817
   0.42017     -2.587248
   0.42894     -2.596906
   0.43771     -2.603735
   0.44648     -2.607757
   0.45525     -2.609069
   0.45525     -2.609069
   0.47279     -2.604157
   0.49033     -2.590406
   0.50787     -2.569282
   0.52541     -2.542086
   0.54295     -2.509973
   0.56049     -2.495534
   0.57803     -2.487701
   0.59557     -2.485685
   0.61311     -2.490424
   0.63065     -2.472898
   0.64819     -2.403816
   0.66573     -2.335302
   0.68327     -2.280053
   0.70081     -2.314621
   0.71835     -2.361272
   0.73589     -2.407517
   0.75343     -2.452090
   0.77097     -2.492645
   0.78851     -2.514757
 
# Band-Index   82
   0.78851     -2.514730
   0.77097     -2.479356
   0.75343     -2.414570
   0.73589     -2.354403
   0.71835     -2.303030
   0.70081     -2.263601
   0.68327     -2.251372
   0.66573     -2.251585
   0.64819     -2.276374
   0.63065     -2.312423
   0.61311     -2.352778
   0.59557     -2.394242
   0.57803     -2.435050
   0.56049     -2.473968
   0.54295     -2.504163
   0.52541     -2.505998
   0.50787     -2.499183
   0.49033     -2.489097
   0.47279     -2.481154
   0.45525     -2.478235
   0.45525     -2.478235
   0.44648     -2.478992
   0.43771     -2.481208
   0.42894     -2.484817
   0.42017     -2.489711
   0.41140     -2.495753
   0.40263     -2.502789
   0.39386     -2.510615
   0.38509     -2.519003
   0.37632     -2.501131
   0.36755     -2.478160
   0.35878     -2.454079
   0.35001     -2.429303
   0.34124     -2.404327
   0.33247     -2.379765
   0.32370     -2.360177
   0.31493     -2.371481
   0.30616     -2.380958
   0.29739     -2.387481
   0.28862     -2.385595
   0.28862     -2.385595
   0.27343     -2.385858
   0.25824     -2.388394
   0.24305     -2.388111
   0.22785     -2.389197
   0.21266     -2.390620
   0.19747     -2.391662
   0.18228     -2.391639
   0.16709     -2.389189
   0.15190     -2.381329
   0.13671     -2.362185
   0.12152     -2.326449
   0.10633     -2.277752
   0.09114     -2.224486
   0.07595     -2.221975
   0.06076     -2.289023
   0.04557     -2.355733
   0.03038     -2.421520
   0.01519     -2.483936
   0.00000     -2.514730
 
# Band-Index   83
   0.00000     -2.263794
   0.01519     -2.256639
   0.03038     -2.236687
   0.04557     -2.208223
   0.06076     -2.179604
   0.07595     -2.179727
   0.09114     -2.155082
   0.10633     -2.091054
   0.12152     -2.077806
   0.13671     -2.105138
   0.15190     -2.136381
   0.16709     -2.171193
   0.18228     -2.209286
   0.19747     -2.250415
   0.21266     -2.294220
   0.22785     -2.340335
   0.24305     -2.387779
   0.25824     -2.386615
   0.27343     -2.378299
   0.28862     -2.374161
   0.28862     -2.374161
   0.29739     -2.339697
   0.30616     -2.321286
   0.31493     -2.335776
   0.32370     -2.356468
   0.33247     -2.347827
   0.34124     -2.334898
   0.35001     -2.321693
   0.35878     -2.308375
   0.36755     -2.295060
   0.37632     -2.281795
   0.38509     -2.268603
   0.39386     -2.255526
   0.40263     -2.242551
   0.41140     -2.229692
   0.42017     -2.216966
   0.42894     -2.204395
   0.43771     -2.192090
   0.44648     -2.180578
   0.45525     -2.173793
   0.45525     -2.173793
   0.47279     -2.190391
   0.49033     -2.209108
   0.50787     -2.222967
   0.52541     -2.230814
   0.54295     -2.231677
   0.56049     -2.224586
   0.57803     -2.209162
   0.59557     -2.186546
   0.61311     -2.159134
   0.63065     -2.129647
   0.64819     -2.159526
   0.66573     -2.208079
   0.68327     -2.238923
   0.70081     -2.193522
   0.71835     -2.153052
   0.73589     -2.190159
   0.75343     -2.228039
   0.77097     -2.254301
   0.78851     -2.263794
 
# Band-Index   84
   0.78851     -2.006936
   0.77097     -2.007032
   0.75343     -2.007885
   0.73589     -2.052062
   0.71835     -2.113575
   0.70081     -2.105884
   0.68327     -2.089389
   0.66573     -2.073449
   0.64819     -2.100476
   0.63065     -2.108774
   0.61311     -2.057159
   0.59557     -2.005037
   0.57803     -2.004527
   0.56049     -2.024441
   0.54295     -2.045655
   0.52541     -2.067986
   0.50787     -2.091226
   0.49033     -2.115122
   0.47279     -2.139125
   0.45525     -2.157193
   0.45525     -2.157193
   0.44648     -2.150152
   0.43771     -2.137926
   0.42894     -2.124661
   0.42017     -2.111075
   0.41140     -2.097477
   0.40263     -2.084066
   0.39386     -2.071023
   0.38509     -2.058452
   0.37632     -2.046535
   0.36755     -2.035350
   0.35878     -2.044433
   0.35001     -2.085920
   0.34124     -2.127460
   0.33247     -2.168996
   0.32370     -2.210463
   0.31493     -2.251546
   0.30616     -2.290144
   0.29739     -2.301310
   0.28862     -2.298564
   0.28862     -2.298564
   0.27343     -2.293507
   0.25824     -2.280650
   0.24305     -2.263378
   0.22785     -2.243548
   0.21266     -2.221998
   0.19747     -2.199132
   0.18228     -2.175178
   0.16709     -2.150290
   0.15190     -2.124651
   0.13671     -2.098612
   0.12152     -2.074277
   0.10633     -2.054734
   0.09114     -2.077969
   0.07595     -2.099069
   0.06076     -2.076928
   0.04557     -2.024839
   0.03038     -2.007512
   0.01519     -2.006996
   0.00000     -2.006936
 
# Band-Index   85
   0.00000     -1.890535
   0.01519     -1.916214
   0.03038     -1.968885
   0.04557     -2.009426
   0.06076     -2.014086
   0.07595     -2.022794
   0.09114     -2.036300
   0.10633     -2.051455
   0.12152     -2.031197
   0.13671     -2.019183
   0.15190     -2.014125
   0.16709     -2.013804
   0.18228     -2.016302
   0.19747     -2.020251
   0.21266     -2.024727
   0.22785     -2.029090
   0.24305     -2.032894
   0.25824     -2.035824
   0.27343     -2.037665
   0.28862     -2.038293
   0.28862     -2.038293
   0.29739     -2.033775
   0.30616     -2.021026
   0.31493     -2.001870
   0.32370     -1.994045
   0.33247     -2.000069
   0.34124     -2.007282
   0.35001     -2.015625
   0.35878     -2.025013
   0.36755     -2.003034
   0.37632     -1.961738
   0.38509     -1.920581
   0.39386     -1.879593
   0.40263     -1.838810
   0.41140     -1.798277
   0.42017     -1.758041
   0.42894     -1.718240
   0.43771     -1.686004
   0.44648     -1.685305
   0.45525     -1.685061
   0.45525     -1.685061
   0.47279     -1.686126
   0.49033     -1.697329
   0.50787     -1.745839
   0.52541     -1.796350
   0.54295     -1.847987
   0.56049     -1.900201
   0.57803     -1.952644
   0.59557     -1.986063
   0.61311     -1.969143
   0.63065     -2.003439
   0.64819     -2.040634
   0.66573     -2.070737
   0.68327     -2.050051
   0.70081     -2.031485
   0.71835     -2.018520
   0.73589     -2.011070
   0.75343     -1.986105
   0.77097     -1.923774
   0.78851     -1.890535
 
# Band-Index   86
   0.78851     -1.890482
   0.77097     -1.891191
   0.75343     -1.902085
   0.73589     -1.936463
   0.71835     -1.963494
   0.70081     -1.968488
   0.68327     -1.937165
   0.66573     -1.928160
   0.64819     -1.940147
   0.63065     -1.953806
   0.61311     -1.962957
   0.59557     -1.920964
   0.57803     -1.878315
   0.56049     -1.835481
   0.54295     -1.792777
   0.52541     -1.750430
   0.50787     -1.708641
   0.49033     -1.689520
   0.47279     -1.652466
   0.45525     -1.619870
   0.45525     -1.619870
   0.44648     -1.642074
   0.43771     -1.679173
   0.42894     -1.687108
   0.42017     -1.688561
   0.41140     -1.690311
   0.40263     -1.706949
   0.39386     -1.737161
   0.38509     -1.768053
   0.37632     -1.799328
   0.36755     -1.830723
   0.35878     -1.861968
   0.35001     -1.892779
   0.34124     -1.922788
   0.33247     -1.951492
   0.32370     -1.978205
   0.31493     -1.989293
   0.30616     -1.985859
   0.29739     -1.983766
   0.28862     -1.983064
   0.28862     -1.983064
   0.27343     -1.982193
   0.25824     -1.979668
   0.24305     -1.975619
   0.22785     -1.970293
   0.21266     -1.963946
   0.19747     -1.956874
   0.18228     -1.949365
   0.16709     -1.941678
   0.15190     -1.934014
   0.13671     -1.946893
   0.12152     -2.011655
   0.10633     -2.034575
   0.09114     -2.009480
   0.07595     -1.980740
   0.06076     -1.951057
   0.04557     -1.920993
   0.03038     -1.892441
   0.01519     -1.890999
   0.00000     -1.890482
 
# Band-Index   87
   0.00000     -1.885004
   0.01519     -1.890670
   0.03038     -1.891260
   0.04557     -1.894848
   0.06076     -1.898173
   0.07595     -1.902362
   0.09114     -1.907389
   0.10633     -1.913173
   0.12152     -1.919623
   0.13671     -1.926609
   0.15190     -1.879752
   0.16709     -1.812396
   0.18228     -1.781177
   0.19747     -1.765395
   0.21266     -1.751079
   0.22785     -1.738700
   0.24305     -1.728637
   0.25824     -1.721219
   0.27343     -1.716667
   0.28862     -1.715133
   0.28862     -1.715133
   0.29739     -1.714927
   0.30616     -1.714320
   0.31493     -1.713326
   0.32370     -1.711979
   0.33247     -1.710323
   0.34124     -1.708407
   0.35001     -1.706283
   0.35878     -1.704002
   0.36755     -1.701625
   0.37632     -1.699213
   0.38509     -1.696816
   0.39386     -1.694496
   0.40263     -1.692309
   0.41140     -1.677794
   0.42017     -1.650217
   0.42894     -1.625081
   0.43771     -1.603904
   0.44648     -1.590009
   0.45525     -1.594134
   0.45525     -1.594134
   0.47279     -1.627409
   0.49033     -1.667563
   0.50787     -1.695494
   0.52541     -1.704191
   0.54295     -1.715610
   0.56049     -1.729627
   0.57803     -1.745964
   0.59557     -1.764221
   0.61311     -1.783846
   0.63065     -1.804167
   0.64819     -1.824379
   0.66573     -1.882436
   0.68327     -1.917832
   0.70081     -1.909196
   0.71835     -1.902233
   0.73589     -1.896926
   0.75343     -1.893273
   0.77097     -1.890687
   0.78851     -1.885004
 
# Band-Index   88
   0.78851     -1.849925
   0.77097     -1.868300
   0.75343     -1.890697
   0.73589     -1.889015
   0.71835     -1.883904
   0.70081     -1.874351
   0.68327     -1.860576
   0.66573     -1.843540
   0.64819     -1.823127
   0.63065     -1.785825
   0.61311     -1.767633
   0.59557     -1.750626
   0.57803     -1.732669
   0.56049     -1.713394
   0.54295     -1.692658
   0.52541     -1.670371
   0.50787     -1.646477
   0.49033     -1.621154
   0.47279     -1.596240
   0.45525     -1.588055
   0.45525     -1.588055
   0.44648     -1.586877
   0.43771     -1.571332
   0.42894     -1.554853
   0.42017     -1.538526
   0.41140     -1.522373
   0.40263     -1.506331
   0.39386     -1.490340
   0.38509     -1.474355
   0.37632     -1.458342
   0.36755     -1.442312
   0.35878     -1.426264
   0.35001     -1.410225
   0.34124     -1.394247
   0.33247     -1.378430
   0.32370     -1.362944
   0.31493     -1.348126
   0.30616     -1.334694
   0.29739     -1.324285
   0.28862     -1.320059
   0.28862     -1.320059
   0.27343     -1.360054
   0.25824     -1.419789
   0.24305     -1.482587
   0.22785     -1.546918
   0.21266     -1.612295
   0.19747     -1.678466
   0.18228     -1.745228
   0.16709     -1.797923
   0.15190     -1.815053
   0.13671     -1.831943
   0.12152     -1.847902
   0.10633     -1.862174
   0.09114     -1.873987
   0.07595     -1.882693
   0.06076     -1.888028
   0.04557     -1.890415
   0.03038     -1.890904
   0.01519     -1.864081
   0.00000     -1.849925
 
# Band-Index   89
   0.00000     -1.849783
   0.01519     -1.843911
   0.03038     -1.841797
   0.04557     -1.841453
   0.06076     -1.840554
   0.07595     -1.837316
   0.09114     -1.829472
   0.10633     -1.814288
   0.12152     -1.789575
   0.13671     -1.755173
   0.15190     -1.712954
   0.16709     -1.665376
   0.18228     -1.614463
   0.19747     -1.561638
   0.21266     -1.507889
   0.22785     -1.453936
   0.24305     -1.400392
   0.25824     -1.347955
   0.27343     -1.298092
   0.28862     -1.268625
   0.28862     -1.268625
   0.29739     -1.274729
   0.30616     -1.286054
   0.31493     -1.299784
   0.32370     -1.314754
   0.33247     -1.330470
   0.34124     -1.346706
   0.35001     -1.363352
   0.35878     -1.380338
   0.36755     -1.397633
   0.37632     -1.415211
   0.38509     -1.433067
   0.39386     -1.451179
   0.40263     -1.469539
   0.41140     -1.488148
   0.42017     -1.506987
   0.42894     -1.526008
   0.43771     -1.545059
   0.44648     -1.563383
   0.45525     -1.574144
   0.45525     -1.574144
   0.47279     -1.519224
   0.49033     -1.485446
   0.50787     -1.489968
   0.52541     -1.504943
   0.54295     -1.527145
   0.56049     -1.555736
   0.57803     -1.591445
   0.59557     -1.635535
   0.61311     -1.687945
   0.63065     -1.744762
   0.64819     -1.784803
   0.66573     -1.800819
   0.68327     -1.811926
   0.70081     -1.820883
   0.71835     -1.828137
   0.73589     -1.833864
   0.75343     -1.838332
   0.77097     -1.842744
   0.78851     -1.849783
 
# Band-Index   90
   0.78851     -1.787879
   0.77097     -1.769743
   0.75343     -1.738340
   0.73589     -1.705938
   0.71835     -1.674501
   0.70081     -1.644233
   0.68327     -1.614783
   0.66573     -1.585449
   0.64819     -1.555161
   0.63065     -1.522389
   0.61311     -1.485097
   0.59557     -1.441172
   0.57803     -1.389722
   0.56049     -1.332126
   0.54295     -1.272601
   0.52541     -1.298032
   0.50787     -1.368173
   0.49033     -1.440378
   0.47279     -1.487320
   0.45525     -1.497214
   0.45525     -1.497214
   0.44648     -1.493081
   0.43771     -1.481423
   0.42894     -1.465010
   0.42017     -1.446072
   0.41140     -1.425834
   0.40263     -1.404981
   0.39386     -1.383940
   0.38509     -1.362987
   0.37632     -1.342375
   0.36755     -1.322332
   0.35878     -1.303115
   0.35001     -1.285092
   0.34124     -1.268833
   0.33247     -1.255450
   0.32370     -1.247077
   0.31493     -1.246247
   0.30616     -1.251966
   0.29739     -1.259643
   0.28862     -1.264553
   0.28862     -1.264553
   0.27343     -1.234164
   0.25824     -1.226581
   0.24305     -1.254029
   0.22785     -1.286668
   0.21266     -1.321162
   0.19747     -1.356551
   0.18228     -1.392426
   0.16709     -1.428536
   0.15190     -1.464738
   0.13671     -1.500912
   0.12152     -1.536960
   0.10633     -1.572798
   0.09114     -1.608340
   0.07595     -1.643490
   0.06076     -1.678096
   0.04557     -1.711901
   0.03038     -1.744281
   0.01519     -1.773058
   0.00000     -1.787879
 
# Band-Index   91
   0.00000     -1.787771
   0.01519     -1.763975
   0.03038     -1.717298
   0.04557     -1.666661
   0.06076     -1.616277
   0.07595     -1.567342
   0.09114     -1.520340
   0.10633     -1.475505
   0.12152     -1.432953
   0.13671     -1.392742
   0.15190     -1.354884
   0.16709     -1.319405
   0.18228     -1.286358
   0.19747     -1.255860
   0.21266     -1.228133
   0.22785     -1.203582
   0.24305     -1.182876
   0.25824     -1.167706
   0.27343     -1.192500
   0.28862     -1.223134
   0.28862     -1.223134
   0.29739     -1.219164
   0.30616     -1.210196
   0.31493     -1.200205
   0.32370     -1.192262
   0.33247     -1.188562
   0.34124     -1.189799
   0.35001     -1.194359
   0.35878     -1.200692
   0.36755     -1.208029
   0.37632     -1.215962
   0.38509     -1.224237
   0.39386     -1.232641
   0.40263     -1.240970
   0.41140     -1.249022
   0.42017     -1.256543
   0.42894     -1.263221
   0.43771     -1.268663
   0.44648     -1.272371
   0.45525     -1.273745
   0.45525     -1.273745
   0.47279     -1.267131
   0.49033     -1.246543
   0.50787     -1.216683
   0.52541     -1.210073
   0.54295     -1.226805
   0.56049     -1.168410
   0.57803     -1.180707
   0.59557     -1.213779
   0.61311     -1.254311
   0.63065     -1.299991
   0.64819     -1.349689
   0.66573     -1.402711
   0.68327     -1.458538
   0.70081     -1.516717
   0.71835     -1.576774
   0.73589     -1.638104
   0.75343     -1.699542
   0.77097     -1.756961
   0.78851     -1.787771
 
# Band-Index   92
   0.78851     -1.201026
   0.77097     -1.198877
   0.75343     -1.192550
   0.73589     -1.182388
   0.71835     -1.168963
   0.70081     -1.153027
   0.68327     -1.135524
   0.66573     -1.117570
   0.64819     -1.100534
   0.63065     -1.086306
   0.61311     -1.078209
   0.59557     -1.083638
   0.57803     -1.113648
   0.56049     -1.156818
   0.54295     -1.158688
   0.52541     -1.176657
   0.50787     -1.141557
   0.49033     -1.085799
   0.47279     -1.038636
   0.45525     -1.015662
   0.45525     -1.015662
   0.44648     -1.019747
   0.43771     -1.027638
   0.42894     -1.036890
   0.42017     -1.046957
   0.41140     -1.057692
   0.40263     -1.069085
   0.39386     -1.081177
   0.38509     -1.094027
   0.37632     -1.107663
   0.36755     -1.121964
   0.35878     -1.136648
   0.35001     -1.151307
   0.34124     -1.165347
   0.33247     -1.177702
   0.32370     -1.186604
   0.31493     -1.189743
   0.30616     -1.187571
   0.29739     -1.184356
   0.28862     -1.182993
   0.28862     -1.182993
   0.27343     -1.188995
   0.25824     -1.165629
   0.24305     -1.113942
   0.22785     -1.086244
   0.21266     -1.070725
   0.19747     -1.065926
   0.18228     -1.068879
   0.16709     -1.077103
   0.15190     -1.088883
   0.13671     -1.102978
   0.12152     -1.118360
   0.10633     -1.134155
   0.09114     -1.149567
   0.07595     -1.163891
   0.06076     -1.176509
   0.04557     -1.186900
   0.03038     -1.194637
   0.01519     -1.199411
   0.00000     -1.201026
 
# Band-Index   93
   0.00000     -0.608215
   0.01519     -0.616124
   0.03038     -0.630539
   0.04557     -0.648907
   0.06076     -0.670369
   0.07595     -0.694339
   0.09114     -0.720454
   0.10633     -0.748506
   0.12152     -0.778455
   0.13671     -0.810412
   0.15190     -0.844631
   0.16709     -0.881558
   0.18228     -0.921631
   0.19747     -0.965145
   0.21266     -1.012030
   0.22785     -1.061890
   0.24305     -1.113440
   0.25824     -1.148962
   0.27343     -1.155190
   0.28862     -1.151833
   0.28862     -1.151833
   0.29739     -1.152312
   0.30616     -1.153537
   0.31493     -1.154794
   0.32370     -1.154544
   0.33247     -1.150460
   0.34124     -1.142012
   0.35001     -1.130987
   0.35878     -1.118786
   0.36755     -1.105979
   0.37632     -1.092758
   0.38509     -1.079214
   0.39386     -1.065497
   0.40263     -1.051855
   0.41140     -1.038626
   0.42017     -1.026169
   0.42894     -1.014879
   0.43771     -1.005259
   0.44648     -0.998089
   0.45525     -0.995401
   0.45525     -0.995401
   0.47279     -0.990960
   0.49033     -0.997922
   0.50787     -1.010198
   0.52541     -1.023524
   0.54295     -1.031534
   0.56049     -1.027195
   0.57803     -1.011810
   0.59557     -0.983104
   0.61311     -0.939349
   0.63065     -0.890155
   0.64819     -0.841557
   0.66573     -0.795918
   0.68327     -0.754405
   0.70081     -0.717640
   0.71835     -0.685781
   0.73589     -0.658544
   0.75343     -0.635781
   0.77097     -0.618041
   0.78851     -0.608215
 
# Band-Index   94
   0.78851     -0.608186
   0.77097     -0.611564
   0.75343     -0.621616
   0.73589     -0.638065
   0.71835     -0.659959
   0.70081     -0.685847
   0.68327     -0.714482
   0.66573     -0.745272
   0.64819     -0.778141
   0.63065     -0.812870
   0.61311     -0.848600
   0.59557     -0.883289
   0.57803     -0.913328
   0.56049     -0.934799
   0.54295     -0.947837
   0.52541     -0.956782
   0.50787     -0.965547
   0.49033     -0.975987
   0.47279     -0.987547
   0.45525     -0.989764
   0.45525     -0.989764
   0.44648     -0.987074
   0.43771     -0.983425
   0.42894     -0.981731
   0.42017     -0.981879
   0.41140     -0.983492
   0.40263     -0.986276
   0.39386     -0.990016
   0.38509     -0.994552
   0.37632     -0.999770
   0.36755     -1.005589
   0.35878     -1.011931
   0.35001     -1.018731
   0.34124     -1.025918
   0.33247     -1.033348
   0.32370     -1.040781
   0.31493     -1.047798
   0.30616     -1.053769
   0.29739     -1.057876
   0.28862     -1.059358
   0.28862     -1.059358
   0.27343     -1.049533
   0.25824     -1.025874
   0.24305     -0.995893
   0.22785     -0.963071
   0.21266     -0.934958
   0.19747     -0.904384
   0.18228     -0.870794
   0.16709     -0.836565
   0.15190     -0.803039
   0.13671     -0.770996
   0.12152     -0.740876
   0.10633     -0.713016
   0.09114     -0.687684
   0.07595     -0.665155
   0.06076     -0.645768
   0.04557     -0.629919
   0.03038     -0.618075
   0.01519     -0.610712
   0.00000     -0.608186
 
# Band-Index   95
   0.00000     -0.603754
   0.01519     -0.601353
   0.03038     -0.603147
   0.04557     -0.610609
   0.06076     -0.623402
   0.07595     -0.641051
   0.09114     -0.663084
   0.10633     -0.689033
   0.12152     -0.718424
   0.13671     -0.750697
   0.15190     -0.785140
   0.16709     -0.820957
   0.18228     -0.857254
   0.19747     -0.893324
   0.21266     -0.928704
   0.22785     -0.959367
   0.24305     -0.975964
   0.25824     -0.986120
   0.27343     -0.991742
   0.28862     -0.993585
   0.28862     -0.993585
   0.29739     -0.992883
   0.30616     -0.990810
   0.31493     -0.987455
   0.32370     -0.982961
   0.33247     -0.977509
   0.34124     -0.971318
   0.35001     -0.964611
   0.35878     -0.957622
   0.36755     -0.950555
   0.37632     -0.943603
   0.38509     -0.936947
   0.39386     -0.930751
   0.40263     -0.925199
   0.41140     -0.920537
   0.42017     -0.917075
   0.42894     -0.915129
   0.43771     -0.914818
   0.44648     -0.915631
   0.45525     -0.916255
   0.45525     -0.916255
   0.47279     -0.912104
   0.49033     -0.900820
   0.50787     -0.885945
   0.52541     -0.869137
   0.54295     -0.850854
   0.56049     -0.831254
   0.57803     -0.810445
   0.59557     -0.788513
   0.61311     -0.765567
   0.63065     -0.741755
   0.64819     -0.717393
   0.66573     -0.693047
   0.68327     -0.669562
   0.70081     -0.647925
   0.71835     -0.629175
   0.73589     -0.614318
   0.75343     -0.604555
   0.77097     -0.601250
   0.78851     -0.603754
 
# Band-Index   96
   0.78851     -0.446444
   0.77097     -0.447007
   0.75343     -0.449034
   0.73589     -0.453238
   0.71835     -0.460255
   0.70081     -0.470388
   0.68327     -0.483700
   0.66573     -0.500027
   0.64819     -0.519136
   0.63065     -0.540735
   0.61311     -0.564503
   0.59557     -0.590098
   0.57803     -0.617148
   0.56049     -0.645191
   0.54295     -0.673672
   0.52541     -0.701865
   0.50787     -0.728723
   0.49033     -0.752594
   0.47279     -0.770671
   0.45525     -0.778113
   0.45525     -0.778113
   0.44648     -0.775893
   0.43771     -0.769062
   0.42894     -0.757965
   0.42017     -0.743581
   0.41140     -0.727096
   0.40263     -0.709587
   0.39386     -0.691899
   0.38509     -0.674660
   0.37632     -0.658347
   0.36755     -0.643301
   0.35878     -0.629766
   0.35001     -0.617890
   0.34124     -0.607744
   0.33247     -0.599331
   0.32370     -0.592605
   0.31493     -0.587493
   0.30616     -0.583915
   0.29739     -0.581799
   0.28862     -0.581099
   0.28862     -0.581099
   0.27343     -0.580241
   0.25824     -0.577647
   0.24305     -0.573287
   0.22785     -0.567152
   0.21266     -0.559289
   0.19747     -0.549845
   0.18228     -0.539072
   0.16709     -0.527323
   0.15190     -0.515012
   0.13671     -0.502622
   0.12152     -0.490625
   0.10633     -0.479511
   0.09114     -0.469716
   0.07595     -0.461579
   0.06076     -0.455316
   0.04557     -0.450938
   0.03038     -0.448236
   0.01519     -0.446849
   0.00000     -0.446444
 
# Band-Index   97
   0.00000     -0.446438
   0.01519     -0.444242
   0.03038     -0.438055
   0.04557     -0.428855
   0.06076     -0.417747
   0.07595     -0.405654
   0.09114     -0.393260
   0.10633     -0.381010
   0.12152     -0.369226
   0.13671     -0.358117
   0.15190     -0.347821
   0.16709     -0.338450
   0.18228     -0.330063
   0.19747     -0.322716
   0.21266     -0.316454
   0.22785     -0.311297
   0.24305     -0.307270
   0.25824     -0.304383
   0.27343     -0.302644
   0.28862     -0.302064
   0.28862     -0.302064
   0.29739     -0.305465
   0.30616     -0.313671
   0.31493     -0.323962
   0.32370     -0.334906
   0.33247     -0.345797
   0.34124     -0.356225
   0.35001     -0.365922
   0.35878     -0.374712
   0.36755     -0.382497
   0.37632     -0.389238
   0.38509     -0.394955
   0.39386     -0.399705
   0.40263     -0.403559
   0.41140     -0.406614
   0.42017     -0.408955
   0.42894     -0.410662
   0.43771     -0.411812
   0.44648     -0.412464
   0.45525     -0.412671
   0.45525     -0.412671
   0.47279     -0.411924
   0.49033     -0.409865
   0.50787     -0.406731
   0.52541     -0.402748
   0.54295     -0.398170
   0.56049     -0.393292
   0.57803     -0.388464
   0.59557     -0.384104
   0.61311     -0.380705
   0.63065     -0.378831
   0.64819     -0.379137
   0.66573     -0.382322
   0.68327     -0.388884
   0.70081     -0.398732
   0.71835     -0.410936
   0.73589     -0.423840
   0.75343     -0.435413
   0.77097     -0.443518
   0.78851     -0.446438
 
# Band-Index   98
   0.78851     -0.315958
   0.77097     -0.315417
   0.75343     -0.313742
   0.73589     -0.310757
   0.71835     -0.306152
   0.70081     -0.299449
   0.68327     -0.290184
   0.66573     -0.278213
   0.64819     -0.263962
   0.63065     -0.248250
   0.61311     -0.231915
   0.59557     -0.215692
   0.57803     -0.200149
   0.56049     -0.185712
   0.54295     -0.172762
   0.52541     -0.161606
   0.50787     -0.152532
   0.49033     -0.145784
   0.47279     -0.141595
   0.45525     -0.140161
   0.45525     -0.140161
   0.44648     -0.140529
   0.43771     -0.141646
   0.42894     -0.143527
   0.42017     -0.146190
   0.41140     -0.149622
   0.40263     -0.153855
   0.39386     -0.158878
   0.38509     -0.164684
   0.37632     -0.171270
   0.36755     -0.178602
   0.35878     -0.186657
   0.35001     -0.195387
   0.34124     -0.204727
   0.33247     -0.214582
   0.32370     -0.224771
   0.31493     -0.235006
   0.30616     -0.244702
   0.29739     -0.252508
   0.28862     -0.255769
   0.28862     -0.255769
   0.27343     -0.256082
   0.25824     -0.257022
   0.24305     -0.258581
   0.22785     -0.260756
   0.21266     -0.263537
   0.19747     -0.266901
   0.18228     -0.270815
   0.16709     -0.275224
   0.15190     -0.280043
   0.13671     -0.285174
   0.12152     -0.290460
   0.10633     -0.295724
   0.09114     -0.300751
   0.07595     -0.305301
   0.06076     -0.309168
   0.04557     -0.312193
   0.03038     -0.314316
   0.01519     -0.315551
   0.00000     -0.315958
 
# Band-Index   99
   0.00000      0.102917
   0.01519      0.102233
   0.03038      0.099781
   0.04557      0.095732
   0.06076      0.090186
   0.07595      0.083271
   0.09114      0.075139
   0.10633      0.065969
   0.12152      0.055984
   0.13671      0.045426
   0.15190      0.034565
   0.16709      0.023691
   0.18228      0.013112
   0.19747      0.003128
   0.21266     -0.005949
   0.22785     -0.013837
   0.24305     -0.020271
   0.25824     -0.025036
   0.27343     -0.027964
   0.28862     -0.028953
   0.28862     -0.028953
   0.29739     -0.029018
   0.30616     -0.029210
   0.31493     -0.029526
   0.32370     -0.029964
   0.33247     -0.030519
   0.34124     -0.031185
   0.35001     -0.031950
   0.35878     -0.032802
   0.36755     -0.033724
   0.37632     -0.034702
   0.38509     -0.035708
   0.39386     -0.036726
   0.40263     -0.037722
   0.41140     -0.038661
   0.42017     -0.039517
   0.42894     -0.040249
   0.43771     -0.040820
   0.44648     -0.041193
   0.45525     -0.041325
   0.45525     -0.041325
   0.47279     -0.040719
   0.49033     -0.038759
   0.50787     -0.035243
   0.52541     -0.030057
   0.54295     -0.023174
   0.56049     -0.014681
   0.57803     -0.004743
   0.59557      0.006365
   0.61311      0.018320
   0.63065      0.030746
   0.64819      0.043241
   0.66573      0.055403
   0.68327      0.066847
   0.70081      0.077196
   0.71835      0.086136
   0.73589      0.093397
   0.75343      0.098739
   0.77097      0.102006
   0.78851      0.102917
 
# Band-Index  100
   0.78851      0.103107
   0.77097      0.102861
   0.75343      0.102693
   0.73589      0.102407
   0.71835      0.102006
   0.70081      0.101496
   0.68327      0.100879
   0.66573      0.100158
   0.64819      0.099345
   0.63065      0.098451
   0.61311      0.097487
   0.59557      0.096481
   0.57803      0.095453
   0.56049      0.094432
   0.54295      0.093456
   0.52541      0.092570
   0.50787      0.091815
   0.49033      0.091230
   0.47279      0.090859
   0.45525      0.090741
   0.45525      0.090741
   0.44648      0.090768
   0.43771      0.090868
   0.42894      0.091034
   0.42017      0.091270
   0.41140      0.091569
   0.40263      0.091922
   0.39386      0.092323
   0.38509      0.092770
   0.37632      0.093243
   0.36755      0.093733
   0.35878      0.094224
   0.35001      0.094701
   0.34124      0.095153
   0.33247      0.095564
   0.32370      0.095920
   0.31493      0.096209
   0.30616      0.096421
   0.29739      0.096555
   0.28862      0.096599
   0.28862      0.096599
   0.27343      0.096644
   0.25824      0.096774
   0.24305      0.096987
   0.22785      0.097274
   0.21266      0.097632
   0.19747      0.098048
   0.18228      0.098511
   0.16709      0.099008
   0.15190      0.099531
   0.13671      0.100056
   0.12152      0.100571
   0.10633      0.101067
   0.09114      0.101528
   0.07595      0.101940
   0.06076      0.102291
   0.04557      0.102579
   0.03038      0.102793
   0.01519      0.102926
   0.00000      0.103107
 
# Band-Index  101
   0.00000      4.595088
   0.01519      4.595547
   0.03038      4.596853
   0.04557      4.598992
   0.06076      4.601913
   0.07595      4.605564
   0.09114      4.609877
   0.10633      4.613671
   0.12152      4.614365
   0.13671      4.615091
   0.15190      4.615867
   0.16709      4.616672
   0.18228      4.617484
   0.19747      4.618275
   0.21266      4.619004
   0.22785      4.619646
   0.24305      4.620173
   0.25824      4.620566
   0.27343      4.620810
   0.28862      4.620880
   0.28862      4.620880
   0.29739      4.609933
   0.30616      4.598688
   0.31493      4.587444
   0.32370      4.576407
   0.33247      4.565746
   0.34124      4.555573
   0.35001      4.545975
   0.35878      4.537022
   0.36755      4.528769
   0.37632      4.521253
   0.38509      4.514506
   0.39386      4.508550
   0.40263      4.503401
   0.41140      4.499067
   0.42017      4.495543
   0.42894      4.492840
   0.43771      4.490933
   0.44648      4.489808
   0.45525      4.489440
   0.45525      4.489440
   0.47279      4.490837
   0.49033      4.494785
   0.50787      4.500839
   0.52541      4.508489
   0.54295      4.517185
   0.56049      4.526429
   0.57803      4.535794
   0.59557      4.544979
   0.61311      4.553768
   0.63065      4.562048
   0.64819      4.569739
   0.66573      4.576775
   0.68327      4.583081
   0.70081      4.588516
   0.71835      4.592823
   0.73589      4.595548
   0.75343      4.596284
   0.77097      4.595599
   0.78851      4.595088
 
# Band-Index  102
   0.78851      4.595157
   0.77097      4.597584
   0.75343      4.604790
   0.73589      4.616489
   0.71835      4.631766
   0.70081      4.647330
   0.68327      4.659084
   0.66573      4.668119
   0.64819      4.675530
   0.63065      4.681522
   0.61311      4.685844
   0.59557      4.687928
   0.57803      4.687030
   0.56049      4.682708
   0.54295      4.675441
   0.52541      4.666620
   0.50787      4.657515
   0.49033      4.648749
   0.47279      4.642446
   0.45525      4.640425
   0.45525      4.640425
   0.44648      4.640792
   0.43771      4.641655
   0.42894      4.642753
   0.42017      4.644044
   0.41140      4.645558
   0.40263      4.647294
   0.39386      4.649218
   0.38509      4.651258
   0.37632      4.653304
   0.36755      4.655206
   0.35878      4.656769
   0.35001      4.657725
   0.34124      4.657720
   0.33247      4.656318
   0.32370      4.653074
   0.31493      4.647710
   0.30616      4.640277
   0.29739      4.631162
   0.28862      4.620893
   0.28862      4.620893
   0.27343      4.622792
   0.25824      4.628140
   0.24305      4.635588
   0.22785      4.642585
   0.21266      4.646272
   0.19747      4.645836
   0.18228      4.642452
   0.16709      4.637472
   0.15190      4.631784
   0.13671      4.625907
   0.12152      4.620171
   0.10633      4.614780
   0.09114      4.612946
   0.07595      4.611985
   0.06076      4.610271
   0.04557      4.606837
   0.03038      4.601569
   0.01519      4.596917
   0.00000      4.595156
 
# Band-Index  103
   0.00000      4.623659
   0.01519      4.624229
   0.03038      4.626564
   0.04557      4.632754
   0.06076      4.639109
   0.07595      4.647235
   0.09114      4.657144
   0.10633      4.668819
   0.12152      4.682243
   0.13671      4.697391
   0.15190      4.714235
   0.16709      4.732735
   0.18228      4.752837
   0.19747      4.751285
   0.21266      4.730396
   0.22785      4.717146
   0.24305      4.711087
   0.25824      4.709376
   0.27343      4.709327
   0.28862      4.709459
   0.28862      4.709459
   0.29739      4.709930
   0.30616      4.711411
   0.31493      4.714027
   0.32370      4.717754
   0.33247      4.722152
   0.34124      4.726189
   0.35001      4.728067
   0.35878      4.725416
   0.36755      4.717690
   0.37632      4.707225
   0.38509      4.696163
   0.39386      4.685566
   0.40263      4.675925
   0.41140      4.667498
   0.42017      4.660459
   0.42894      4.654957
   0.43771      4.651126
   0.44648      4.648988
   0.45525      4.648347
   0.45525      4.648347
   0.47279      4.650398
   0.49033      4.656301
   0.50787      4.667589
   0.52541      4.685585
   0.54295      4.709403
   0.56049      4.738043
   0.57803      4.770194
   0.59557      4.768143
   0.61311      4.743673
   0.63065      4.721361
   0.64819      4.701269
   0.66573      4.683445
   0.68327      4.667926
   0.70081      4.654745
   0.71835      4.643927
   0.73589      4.634417
   0.75343      4.627556
   0.77097      4.624431
   0.78851      4.623659
 
# Band-Index  104
   0.78851      4.624621
   0.77097      4.625830
   0.75343      4.629457
   0.73589      4.635492
   0.71835      4.645202
   0.70081      4.660855
   0.68327      4.683309
   0.66573      4.710326
   0.64819      4.739823
   0.63065      4.769770
   0.61311      4.795403
   0.59557      4.800414
   0.57803      4.794687
   0.56049      4.791735
   0.54295      4.784155
   0.52541      4.780250
   0.50787      4.778847
   0.49033      4.778763
   0.47279      4.779134
   0.45525      4.779363
   0.45525      4.779363
   0.44648      4.779281
   0.43771      4.779000
   0.42894      4.778470
   0.42017      4.777646
   0.41140      4.776486
   0.40263      4.774955
   0.39386      4.773064
   0.38509      4.770918
   0.37632      4.768858
   0.36755      4.767825
   0.35878      4.769917
   0.35001      4.777500
   0.34124      4.790186
   0.33247      4.805854
   0.32370      4.822872
   0.31493      4.839939
   0.30616      4.855366
   0.29739      4.866402
   0.28862      4.870235
   0.28862      4.870235
   0.27343      4.865468
   0.25824      4.853146
   0.24305      4.836741
   0.22785      4.818666
   0.21266      4.797475
   0.19747      4.774460
   0.18228      4.764671
   0.16709      4.748076
   0.15190      4.732426
   0.13671      4.717693
   0.12152      4.703741
   0.10633      4.690154
   0.09114      4.676002
   0.07595      4.660289
   0.06076      4.644605
   0.04557      4.632777
   0.03038      4.628248
   0.01519      4.625528
   0.00000      4.624621
 
# Band-Index  105
   0.00000      4.660274
   0.01519      4.661430
   0.03038      4.664818
   0.04557      4.670585
   0.06076      4.679260
   0.07595      4.692413
   0.09114      4.712687
   0.10633      4.740283
   0.12152      4.761560
   0.13671      4.782824
   0.15190      4.800270
   0.16709      4.800171
   0.18228      4.777210
   0.19747      4.782118
   0.21266      4.800235
   0.22785      4.821647
   0.24305      4.846503
   0.25824      4.870914
   0.27343      4.885825
   0.28862      4.885383
   0.28862      4.885383
   0.29739      4.885230
   0.30616      4.886280
   0.31493      4.889245
   0.32370      4.894009
   0.33247      4.900595
   0.34124      4.909110
   0.35001      4.915797
   0.35878      4.920289
   0.36755      4.925375
   0.37632      4.931052
   0.38509      4.937316
   0.39386      4.944163
   0.40263      4.951587
   0.41140      4.959578
   0.42017      4.968117
   0.42894      4.977165
   0.43771      4.986614
   0.44648      4.996017
   0.45525      5.001930
   0.45525      5.001930
   0.47279      4.981749
   0.49033      4.950893
   0.50787      4.918054
   0.52541      4.885266
   0.54295      4.853479
   0.56049      4.823192
   0.57803      4.802545
   0.59557      4.813861
   0.61311      4.840537
   0.63065      4.820374
   0.64819      4.786419
   0.66573      4.753711
   0.68327      4.725258
   0.70081      4.702373
   0.71835      4.685489
   0.73589      4.673877
   0.75343      4.666243
   0.77097      4.661776
   0.78851      4.660275
 
# Band-Index  106
   0.78851      4.660338
   0.77097      4.662675
   0.75343      4.669707
   0.73589      4.681441
   0.71835      4.697817
   0.70081      4.718725
   0.68327      4.743974
   0.66573      4.773237
   0.64819      4.805807
   0.63065      4.840550
   0.61311      4.854352
   0.59557      4.872862
   0.57803      4.902058
   0.56049      4.936706
   0.54295      4.973407
   0.52541      5.010656
   0.50787      5.047371
   0.49033      5.059499
   0.47279      5.034095
   0.45525      5.016759
   0.45525      5.016759
   0.44648      5.021658
   0.43771      5.027762
   0.42894      5.031550
   0.42017      5.032922
   0.41140      5.032366
   0.40263      5.023346
   0.39386      5.002156
   0.38509      4.982187
   0.37632      4.963734
   0.36755      4.947051
   0.35878      4.932330
   0.35001      4.919668
   0.34124      4.911899
   0.33247      4.908600
   0.32370      4.905898
   0.31493      4.903795
   0.30616      4.902293
   0.29739      4.901391
   0.28862      4.901090
   0.28862      4.901090
   0.27343      4.891767
   0.25824      4.886858
   0.24305      4.887628
   0.22785      4.886801
   0.21266      4.882847
   0.19747      4.874714
   0.18228      4.863220
   0.16709      4.855397
   0.15190      4.859982
   0.13671      4.815614
   0.12152      4.775673
   0.10633      4.740927
   0.09114      4.720426
   0.07595      4.702772
   0.06076      4.687824
   0.04557      4.675922
   0.03038      4.667289
   0.01519      4.662064
   0.00000      4.660338
 
# Band-Index  107
   0.00000      5.106521
   0.01519      5.104076
   0.03038      5.096671
   0.04557      5.084213
   0.06076      5.066493
   0.07595      5.043241
   0.09114      5.014388
   0.10633      4.980513
   0.12152      4.943214
   0.13671      4.905131
   0.15190      4.871132
   0.16709      4.908181
   0.18228      4.959551
   0.19747      5.012657
   0.21266      5.060149
   0.22785      5.067134
   0.24305      5.046896
   0.25824      5.026108
   0.27343      5.010731
   0.28862      5.000603
   0.28862      5.000603
   0.29739      5.000832
   0.30616      5.001517
   0.31493      5.002652
   0.32370      5.004223
   0.33247      5.006213
   0.34124      5.008594
   0.35001      5.011331
   0.35878      5.014373
   0.36755      5.017650
   0.37632      5.021065
   0.38509      5.024481
   0.39386      5.027704
   0.40263      5.030459
   0.41140      5.045372
   0.42017      5.067698
   0.42894      5.089478
   0.43771      5.109143
   0.44648      5.123699
   0.45525      5.129084
   0.45525      5.129084
   0.47279      5.113284
   0.49033      5.082508
   0.50787      5.087566
   0.52541      5.104197
   0.54295      5.059371
   0.56049      5.012738
   0.57803      4.965888
   0.59557      4.920357
   0.61311      4.878068
   0.63065      4.882947
   0.64819      4.920116
   0.66573      4.957256
   0.68327      4.992978
   0.70081      5.025781
   0.71835      5.054168
   0.73589      5.076947
   0.75343      5.093388
   0.77097      5.103251
   0.78851      5.106519
 
# Band-Index  108
   0.78851      5.542832
   0.77097      5.537931
   0.75343      5.460548
   0.73589      5.382304
   0.71835      5.305862
   0.70081      5.232873
   0.68327      5.164310
   0.66573      5.101616
   0.64819      5.047185
   0.63065      5.006237
   0.61311      4.989948
   0.59557      5.007654
   0.57803      5.049898
   0.56049      5.104709
   0.54295      5.150702
   0.52541      5.117993
   0.50787      5.144749
   0.49033      5.178686
   0.47279      5.182710
   0.45525      5.176515
   0.45525      5.176515
   0.44648      5.178367
   0.43771      5.184183
   0.42894      5.194041
   0.42017      5.207593
   0.41140      5.224245
   0.40263      5.243377
   0.39386      5.252060
   0.38509      5.251143
   0.37632      5.242141
   0.36755      5.218269
   0.35878      5.188631
   0.35001      5.158264
   0.34124      5.128364
   0.33247      5.099478
   0.32370      5.072144
   0.31493      5.047148
   0.30616      5.025836
   0.29739      5.010619
   0.28862      5.004901
   0.28862      5.004901
   0.27343      5.011545
   0.25824      5.037256
   0.24305      5.069760
   0.22785      5.105940
   0.21266      5.126809
   0.19747      5.117076
   0.18228      5.114981
   0.16709      5.120602
   0.15190      5.133298
   0.13671      5.152523
   0.12152      5.178308
   0.10633      5.211186
   0.09114      5.251848
   0.07595      5.300415
   0.06076      5.356172
   0.04557      5.417635
   0.03038      5.482918
   0.01519      5.543584
   0.00000      5.542832
 
# Band-Index  109
   0.00000      5.597507
   0.01519      5.548233
   0.03038      5.546096
   0.04557      5.519887
   0.06076      5.481082
   0.07595      5.441375
   0.09114      5.401637
   0.10633      5.362208
   0.12152      5.323461
   0.13671      5.285515
   0.15190      5.248665
   0.16709      5.213156
   0.18228      5.179400
   0.19747      5.148753
   0.21266      5.128528
   0.22785      5.142699
   0.24305      5.161881
   0.25824      5.180570
   0.27343      5.194463
   0.28862      5.199662
   0.28862      5.199661
   0.29739      5.200515
   0.30616      5.203055
   0.31493      5.207154
   0.32370      5.212660
   0.33247      5.219338
   0.34124      5.226859
   0.35001      5.234844
   0.35878      5.242978
   0.36755      5.251121
   0.37632      5.262891
   0.38509      5.284513
   0.39386      5.264465
   0.40263      5.248695
   0.41140      5.242053
   0.42017      5.232942
   0.42894      5.222705
   0.43771      5.212883
   0.44648      5.205783
   0.45525      5.203546
   0.45525      5.203544
   0.47279      5.200443
   0.49033      5.198206
   0.50787      5.219695
   0.52541      5.233151
   0.54295      5.166711
   0.56049      5.185661
   0.57803      5.222844
   0.59557      5.262235
   0.61311      5.303815
   0.63065      5.347571
   0.64819      5.393484
   0.66573      5.428388
   0.68327      5.441427
   0.70081      5.460072
   0.71835      5.484676
   0.73589      5.515082
   0.75343      5.545853
   0.77097      5.543921
   0.78851      5.597522
 
# Band-Index  110
   0.78851      5.597595
   0.77097      5.582060
   0.75343      5.550885
   0.73589      5.553047
   0.71835      5.560722
   0.70081      5.543955
   0.68327      5.491705
   0.66573      5.441537
   0.64819      5.420007
   0.63065      5.415632
   0.61311      5.414623
   0.59557      5.377687
   0.57803      5.340868
   0.56049      5.306401
   0.54295      5.274488
   0.52541      5.245422
   0.50787      5.298238
   0.49033      5.323162
   0.47279      5.292714
   0.45525      5.278200
   0.45525      5.278204
   0.44648      5.280487
   0.43771      5.285394
   0.42894      5.291078
   0.42017      5.296843
   0.41140      5.302082
   0.40263      5.305476
   0.39386      5.301959
   0.38509      5.287115
   0.37632      5.311039
   0.36755      5.336025
   0.35878      5.361916
   0.35001      5.386943
   0.34124      5.393843
   0.33247      5.392963
   0.32370      5.392286
   0.31493      5.391797
   0.30616      5.391649
   0.29739      5.391464
   0.28862      5.391435
   0.28862      5.391405
   0.27343      5.342046
   0.25824      5.275833
   0.24305      5.211437
   0.22785      5.153723
   0.21266      5.144662
   0.19747      5.185442
   0.18228      5.228031
   0.16709      5.272284
   0.15190      5.318091
   0.13671      5.365362
   0.12152      5.414007
   0.10633      5.463926
   0.09114      5.514996
   0.07595      5.563220
   0.06076      5.555873
   0.04557      5.550165
   0.03038      5.556452
   0.01519      5.585864
   0.00000      5.597702
 
# Band-Index  111
   0.00000      5.618751
   0.01519      5.647558
   0.03038      5.664065
   0.04557      5.673165
   0.06076      5.619890
   0.07595      5.567058
   0.09114      5.572208
   0.10633      5.582816
   0.12152      5.595024
   0.13671      5.608759
   0.15190      5.623857
   0.16709      5.614758
   0.18228      5.602290
   0.19747      5.591490
   0.21266      5.582355
   0.22785      5.574883
   0.24305      5.559051
   0.25824      5.535420
   0.27343      5.494684
   0.28862      5.443436
   0.28862      5.443450
   0.29739      5.441567
   0.30616      5.436670
   0.31493      5.428946
   0.32370      5.419769
   0.33247      5.409663
   0.34124      5.399244
   0.35001      5.388582
   0.35878      5.375888
   0.36755      5.365138
   0.37632      5.355623
   0.38509      5.349925
   0.39386      5.354328
   0.40263      5.374947
   0.41140      5.404071
   0.42017      5.434679
   0.42894      5.465413
   0.43771      5.494542
   0.44648      5.519299
   0.45525      5.532464
   0.45525      5.532404
   0.47279      5.474433
   0.49033      5.409187
   0.50787      5.405515
   0.52541      5.429189
   0.54295      5.432361
   0.56049      5.426967
   0.57803      5.421005
   0.59557      5.416539
   0.61311      5.416706
   0.63065      5.457787
   0.64819      5.500783
   0.66573      5.545519
   0.68327      5.582788
   0.70081      5.570651
   0.71835      5.598230
   0.73589      5.654413
   0.75343      5.663834
   0.77097      5.650537
   0.78851      5.618728
 
# Band-Index  112
   0.78851      5.748058
   0.77097      5.765479
   0.75343      5.712222
   0.73589      5.667890
   0.71835      5.668769
   0.70081      5.639139
   0.68327      5.591756
   0.66573      5.597112
   0.64819      5.613587
   0.63065      5.632089
   0.61311      5.650833
   0.59557      5.649979
   0.57803      5.638655
   0.56049      5.614201
   0.54295      5.573249
   0.52541      5.534584
   0.50787      5.521582
   0.49033      5.532013
   0.47279      5.546400
   0.45525      5.553491
   0.45525      5.553506
   0.44648      5.535149
   0.43771      5.514571
   0.42894      5.495083
   0.42017      5.476505
   0.41140      5.459260
   0.40263      5.443717
   0.39386      5.430340
   0.38509      5.419466
   0.37632      5.410741
   0.36755      5.404295
   0.35878      5.399776
   0.35001      5.396862
   0.34124      5.415905
   0.33247      5.443746
   0.32370      5.471908
   0.31493      5.500018
   0.30616      5.517880
   0.29739      5.513760
   0.28862      5.512245
   0.28862      5.512275
   0.27343      5.518364
   0.25824      5.564926
   0.24305      5.569074
   0.22785      5.586356
   0.21266      5.613764
   0.19747      5.637986
   0.18228      5.650500
   0.16709      5.639734
   0.15190      5.628890
   0.13671      5.644685
   0.12152      5.662142
   0.10633      5.681244
   0.09114      5.696754
   0.07595      5.689590
   0.06076      5.681890
   0.04557      5.673695
   0.03038      5.726334
   0.01519      5.761370
   0.00000      5.747894
 
# Band-Index  113
   0.00000      5.748285
   0.01519      5.773261
   0.03038      5.794601
   0.04557      5.773199
   0.06076      5.748097
   0.07595      5.724290
   0.09114      5.701974
   0.10633      5.702020
   0.12152      5.704580
   0.13671      5.702275
   0.15190      5.696218
   0.16709      5.687660
   0.18228      5.675959
   0.19747      5.671560
   0.21266      5.662688
   0.22785      5.655422
   0.24305      5.641590
   0.25824      5.566944
   0.27343      5.562437
   0.28862      5.561607
   0.28862      5.561607
   0.29739      5.550641
   0.30616      5.527179
   0.31493      5.523733
   0.32370      5.530281
   0.33247      5.537370
   0.34124      5.544810
   0.35001      5.551789
   0.35878      5.560087
   0.36755      5.565482
   0.37632      5.572016
   0.38509      5.580389
   0.39386      5.582971
   0.40263      5.587603
   0.41140      5.591703
   0.42017      5.594040
   0.42894      5.594629
   0.43771      5.591481
   0.44648      5.579490
   0.45525      5.557255
   0.45525      5.557244
   0.47279      5.594432
   0.49033      5.622528
   0.50787      5.640993
   0.52541      5.654990
   0.54295      5.670465
   0.56049      5.695087
   0.57803      5.701812
   0.59557      5.677158
   0.61311      5.659481
   0.63065      5.661825
   0.64819      5.664820
   0.66573      5.666913
   0.68327      5.667828
   0.70081      5.669443
   0.71835      5.687092
   0.73589      5.734614
   0.75343      5.779777
   0.77097      5.770691
   0.78851      5.748581
 
# Band-Index  114
   0.78851      5.818418
   0.77097      5.779606
   0.75343      5.803415
   0.73589      5.853414
   0.71835      5.888765
   0.70081      5.899918
   0.68327      5.913350
   0.66573      5.929105
   0.64819      5.932814
   0.63065      5.899800
   0.61311      5.853697
   0.59557      5.797973
   0.57803      5.742643
   0.56049      5.729301
   0.54295      5.758021
   0.52541      5.783802
   0.50787      5.737637
   0.49033      5.689123
   0.47279      5.648937
   0.45525      5.628208
   0.45525      5.628234
   0.44648      5.636633
   0.43771      5.663812
   0.42894      5.701092
   0.42017      5.743185
   0.41140      5.790067
   0.40263      5.829223
   0.39386      5.855755
   0.38509      5.850542
   0.37632      5.844751
   0.36755      5.839615
   0.35878      5.834962
   0.35001      5.830852
   0.34124      5.810025
   0.33247      5.775460
   0.32370      5.741835
   0.31493      5.709497
   0.30616      5.679325
   0.29739      5.654061
   0.28862      5.642494
   0.28862      5.642494
   0.27343      5.643302
   0.25824      5.645728
   0.24305      5.649768
   0.22785      5.718158
   0.21266      5.706643
   0.19747      5.686428
   0.18228      5.682029
   0.16709      5.694088
   0.15190      5.707695
   0.13671      5.722832
   0.12152      5.739432
   0.10633      5.757393
   0.09114      5.776545
   0.07595      5.796588
   0.06076      5.816968
   0.04557      5.829283
   0.03038      5.799031
   0.01519      5.778205
   0.00000      5.818418
 
# Band-Index  115
   0.00000      5.836585
   0.01519      5.823487
   0.03038      5.830975
   0.04557      5.836614
   0.06076      5.872621
   0.07595      5.918474
   0.09114      5.948563
   0.10633      5.960217
   0.12152      5.973571
   0.13671      5.988644
   0.15190      6.005453
   0.16709      6.024004
   0.18228      5.950752
   0.19747      5.874944
   0.21266      5.795360
   0.22785      5.729516
   0.24305      5.753996
   0.25824      5.779406
   0.27343      5.803818
   0.28862      5.817376
   0.28862      5.817376
   0.29739      5.817653
   0.30616      5.818480
   0.31493      5.819855
   0.32370      5.821782
   0.33247      5.824261
   0.34124      5.827284
   0.35001      5.845356
   0.35878      5.881368
   0.36755      5.891619
   0.37632      5.895939
   0.38509      5.900437
   0.39386      5.882977
   0.40263      5.864646
   0.41140      5.862277
   0.42017      5.832210
   0.42894      5.809981
   0.43771      5.793325
   0.44648      5.782165
   0.45525      5.778015
   0.45525      5.778086
   0.47279      5.795108
   0.49033      5.837803
   0.50787      5.823170
   0.52541      5.800862
   0.54295      5.855331
   0.56049      5.902414
   0.57803      6.010699
   0.59557      6.015190
   0.61311      5.990259
   0.63065      5.967571
   0.64819      5.947178
   0.66573      5.949301
   0.68327      5.946512
   0.70081      5.926372
   0.71835      5.891059
   0.73589      5.879746
   0.75343      5.851161
   0.77097      5.818194
   0.78851      5.836586
 
# Band-Index  116
   0.78851      5.836611
   0.77097      5.862252
   0.75343      5.872211
   0.73589      5.917044
   0.71835      5.925601
   0.70081      5.936362
   0.68327      5.949399
   0.66573      5.964767
   0.64819      5.982440
   0.63065      6.002442
   0.61311      6.024760
   0.59557      6.017123
   0.57803      6.042458
   0.56049      6.071866
   0.54295      6.048894
   0.52541      6.018369
   0.50787      5.900788
   0.49033      5.857630
   0.47279      5.889805
   0.45525      5.913311
   0.45525      5.913312
   0.44648      5.906417
   0.43771      5.897187
   0.42894      5.888285
   0.42017      5.879942
   0.41140      5.873121
   0.40263      5.883796
   0.39386      5.906107
   0.38509      5.943416
   0.37632      5.955203
   0.36755      5.917997
   0.35878      5.887433
   0.35001      5.883701
   0.34124      5.880450
   0.33247      5.877673
   0.32370      5.875384
   0.31493      5.873599
   0.30616      5.872327
   0.29739      5.871544
   0.28862      5.871286
   0.28862      5.871289
   0.27343      5.886473
   0.25824      5.915787
   0.24305      5.949345
   0.22785      5.985351
   0.21266      6.023193
   0.19747      6.062804
   0.18228      6.044287
   0.16709      6.147123
   0.15190      6.125556
   0.13671      6.085249
   0.12152      6.111440
   0.10633      6.005111
   0.09114      5.989025
   0.07595      5.938569
   0.06076      5.930162
   0.04557      5.900769
   0.03038      5.853064
   0.01519      5.857745
   0.00000      5.836611
 
# Band-Index  117
   0.00000      5.897122
   0.01519      5.906921
   0.03038      5.917152
   0.04557      5.923171
   0.06076      5.974871
   0.07595      6.052950
   0.09114      6.094385
   0.10633      6.137691
   0.12152      6.183022
   0.13671      6.168136
   0.15190      6.189113
   0.16709      6.271325
   0.18228      6.103978
   0.19747      6.066317
   0.21266      6.090083
   0.22785      6.115590
   0.24305      6.142802
   0.25824      6.171690
   0.27343      6.185539
   0.28862      6.184005
   0.28862      6.180439
   0.29739      6.178505
   0.30616      6.210680
   0.31493      6.155182
   0.32370      6.133613
   0.33247      6.108343
   0.34124      6.085547
   0.35001      6.061681
   0.35878      6.024618
   0.36755      6.013975
   0.37632      5.960111
   0.38509      5.992926
   0.39386      5.943441
   0.40263      5.914141
   0.41140      5.918777
   0.42017      5.923405
   0.42894      5.927175
   0.43771      5.928674
   0.44648      5.926301
   0.45525      5.921594
   0.45525      5.921594
   0.47279      5.939757
   0.49033      5.963724
   0.50787      5.990010
   0.52541      6.082285
   0.54295      6.103506
   0.56049      6.081662
   0.57803      6.076346
   0.59557      6.049400
   0.61311      6.061529
   0.63065      6.039221
   0.64819      6.018944
   0.66573      6.000707
   0.68327      5.984374
   0.70081      5.969741
   0.71835      5.956384
   0.73589      5.943606
   0.75343      5.910313
   0.77097      5.903560
   0.78851      5.897128
 
# Band-Index  118
   0.78851      5.897157
   0.77097      5.917991
   0.75343      5.930488
   0.73589      5.947276
   0.71835      6.030203
   0.70081      6.190681
   0.68327      6.267262
   0.66573      6.321115
   0.64819      6.276333
   0.63065      6.233126
   0.61311      6.192377
   0.59557      6.085962
   0.57803      6.112483
   0.56049      6.105545
   0.54295      6.112374
   0.52541      6.137211
   0.50787      6.055868
   0.49033      6.032221
   0.47279      6.013494
   0.45525      6.004805
   0.45525      6.004805
   0.44648      6.007837
   0.43771      6.017173
   0.42894      6.031723
   0.42017      6.049749
   0.41140      6.070002
   0.40263      6.069889
   0.39386      6.031210
   0.38509      6.105139
   0.37632      6.108701
   0.36755      6.183274
   0.35878      6.213343
   0.35001      6.229505
   0.34124      6.238248
   0.33247      6.235066
   0.32370      6.232428
   0.31493      6.230372
   0.30616      6.228911
   0.29739      6.228029
   0.28862      6.227735
   0.28862      6.227733
   0.27343      6.202034
   0.25824      6.224473
   0.24305      6.176622
   0.22785      6.206407
   0.21266      6.165317
   0.19747      6.175548
   0.18228      6.188993
   0.16709      6.350590
   0.15190      6.196278
   0.13671      6.229723
   0.12152      6.232486
   0.10633      6.184617
   0.09114      6.137469
   0.07595      6.090763
   0.06076      6.013499
   0.04557      5.976216
   0.03038      5.941692
   0.01519      5.912011
   0.00000      5.897156
 
# Band-Index  119
   0.00000      5.913373
   0.01519      5.917827
   0.03038      5.951245
   0.04557      5.997252
   0.06076      6.044118
   0.07595      6.203787
   0.09114      6.318909
   0.10633      6.329051
   0.12152      6.284229
   0.13671      6.237244
   0.15190      6.278254
   0.16709      6.385867
   0.18228      6.381797
   0.19747      6.392017
   0.21266      6.403931
   0.22785      6.382999
   0.24305      6.343711
   0.25824      6.306102
   0.27343      6.270554
   0.28862      6.243131
   0.28862      6.243125
   0.29739      6.243414
   0.30616      6.244296
   0.31493      6.245733
   0.32370      6.247754
   0.33247      6.250340
   0.34124      6.253531
   0.35001      6.242046
   0.35878      6.235409
   0.36755      6.250374
   0.37632      6.162883
   0.38509      6.152880
   0.39386      6.114726
   0.40263      6.091685
   0.41140      6.108962
   0.42017      6.148294
   0.42894      6.187795
   0.43771      6.226573
   0.44648      6.264246
   0.45525      6.290699
   0.45525      6.289060
   0.47279      6.252037
   0.49033      6.211392
   0.50787      6.173317
   0.52541      6.170715
   0.54295      6.137005
   0.56049      6.141036
   0.57803      6.116555
   0.59557      6.153507
   0.61311      6.244678
   0.63065      6.290958
   0.64819      6.332271
   0.66573      6.344691
   0.68327      6.307213
   0.70081      6.200964
   0.71835      6.118521
   0.73589      6.047934
   0.75343      5.980925
   0.77097      5.922553
   0.78851      5.913373
 
# Band-Index  120
   0.78851      6.134149
   0.77097      6.146031
   0.75343      6.178798
   0.73589      6.226543
   0.71835      6.284094
   0.70081      6.351679
   0.68327      6.374957
   0.66573      6.373131
   0.64819      6.424354
   0.63065      6.478495
   0.61311      6.361841
   0.59557      6.215464
   0.57803      6.179565
   0.56049      6.144352
   0.54295      6.171553
   0.52541      6.203235
   0.50787      6.206687
   0.49033      6.244864
   0.47279      6.283763
   0.45525      6.302046
   0.45525      6.306269
   0.44648      6.317036
   0.43771      6.312554
   0.42894      6.312390
   0.42017      6.293683
   0.41140      6.285736
   0.40263      6.277336
   0.39386      6.270950
   0.38509      6.275089
   0.37632      6.257215
   0.36755      6.265665
   0.35878      6.249906
   0.35001      6.254471
   0.34124      6.266599
   0.33247      6.294259
   0.32370      6.322215
   0.31493      6.350604
   0.30616      6.379586
   0.29739      6.407116
   0.28862      6.425414
   0.28862      6.425797
   0.27343      6.426413
   0.25824      6.428495
   0.24305      6.432270
   0.22785      6.434727
   0.21266      6.423976
   0.19747      6.435094
   0.18228      6.424999
   0.16709      6.413648
   0.15190      6.328428
   0.13671      6.281118
   0.12152      6.455891
   0.10633      6.412838
   0.09114      6.371134
   0.07595      6.315988
   0.06076      6.254658
   0.04557      6.206658
   0.03038      6.168422
   0.01519      6.143109
   0.00000      6.134140
